 -->exp_name
EEG_new_trial
 -->dataset
EEG
 -->deltaX
256
 -->x_discr
2048
 -->prob_distr_type
KDE
 -->h_opt_strategy
cost
 -->h_Delta_list
[[16.0, 0.34830859375], [32.0, 0.29367578124999993], [64.0, 0.27026171874999994], [128.0, 0.27806640625], [256.0, 0.29367578124999993], [512.0, 0.28587109374999997], [1024.0, 0.22343359375], [2048.0, 0.09075390624999999], [4096.0, 0.01270703125]]
 -->chb_indx
1
 -->chb_path
chb01_03.edf
 -->min_Pre_Ict
3
 -->min_Post_Ict
3
 -->IM_list
['t', 'l', 'a', 'S', 'Tq0.8', 'Tq1.5', 'Rq0.8', 'Rq1.5', 'F']
 -->code_cloud
False
 -->model_name
EEG_01_24_13_15_11
 -->path_EEG_database
/Volumes/T7/data_and_models/raw_datasets/chb-mit-scalp-eeg-database-1.0.0
 -->obj_EEG_dir
/Volumes/T7/data_and_models/samples/EEG_Data/EEG_IM_objs
 -->chdir
/Users/antoniosquicciarini/ownCloud/PhD_Projects/Information_Measurement
 -->add_dir
/Users/antoniosquicciarini/ownCloud/PhD_Projects/General_Functions
 -->result_report_path
/Volumes/T7/data_and_models/results/IM_time_signal_analysis/hDelta_JSD_opt
 -->sampling_rate
256.0
 -->channels
{'1': 'FP1-F7', '2': 'F7-T7', '3': 'T7-P7', '4': 'P7-O1', '5': 'FP1-F3', '6': 'F3-C3', '7': 'C3-P3', '8': 'P3-O1', '9': 'FP2-F4', '10': 'F4-C4', '11': 'C4-P4', '12': 'P4-O2', '13': 'FP2-F8', '14': 'F8-T8', '15': 'T8-P8', '16': 'P8-O2', '17': 'FZ-CZ', '18': 'CZ-PZ', '19': 'P7-T7', '20': 'T7-FT9', '21': 'FT9-FT10', '22': 'FT10-T8', '23': 'T8-P8'}
 -->signal_labels
['FP1-F7', 'F7-T7', 'T7-P7', 'P7-O1', 'FP1-F3', 'F3-C3', 'C3-P3', 'P3-O1', 'FP2-F4', 'F4-C4', 'C4-P4', 'P4-O2', 'FP2-F8', 'F8-T8', 'T8-P8', 'P8-O2', 'FZ-CZ', 'CZ-PZ', 'P7-T7', 'T7-FT9', 'FT9-FT10', 'FT10-T8', 'T8-P8']
 -->t0_anomaly
3600.0
 -->t_total
3600.0
 -->channel_index
0
 -->N_points
921600
 -->DeltaX_h_comb_list
[[[16.0, 0.34830859375], [16.0, 0.34830859375], [16.0, 0.34830859375], [16.0, 0.34830859375], [16.0, 0.34830859375], [16.0, 0.34830859375], [16.0, 0.34830859375], [16.0, 0.34830859375], [16.0, 0.34830859375], [16.0, 0.34830859375], [16.0, 0.34830859375], [16.0, 0.34830859375], [16.0, 0.34830859375], [16.0, 0.34830859375], [16.0, 0.34830859375], [16.0, 0.34830859375], [16.0, 0.34830859375], [16.0, 0.34830859375], [16.0, 0.34830859375], [16.0, 0.34830859375], [16.0, 0.34830859375], [16.0, 0.34830859375], [16.0, 0.34830859375], [16.0, 0.34830859375], [16.0, 0.34830859375], [16.0, 0.34830859375], [16.0, 0.34830859375], [16.0, 0.34830859375], [16.0, 0.34830859375], [16.0, 0.34830859375], [16.0, 0.34830859375], [16.0, 0.34830859375], [16.0, 0.34830859375], [16.0, 0.34830859375], [16.0, 0.34830859375], [16.0, 0.34830859375], [16.0, 0.34830859375], [16.0, 0.34830859375], [16.0, 0.34830859375], [16.0, 0.34830859375], [16.0, 0.34830859375], [16.0, 0.34830859375], [16.0, 0.34830859375], [16.0, 0.34830859375], [16.0, 0.34830859375], [16.0, 0.34830859375], [16.0, 0.34830859375], [16.0, 0.34830859375], [16.0, 0.34830859375], [16.0, 0.34830859375], [16.0, 0.34830859375], [16.0, 0.34830859375], [16.0, 0.34830859375], [16.0, 0.34830859375], [16.0, 0.34830859375], [16.0, 0.34830859375], [16.0, 0.34830859375], [16.0, 0.34830859375], [16.0, 0.34830859375], [16.0, 0.34830859375], [16.0, 0.34830859375], [16.0, 0.34830859375], [16.0, 0.34830859375], [16.0, 0.34830859375], [16.0, 0.34830859375], [16.0, 0.34830859375], [16.0, 0.34830859375], [16.0, 0.34830859375], [16.0, 0.34830859375], [16.0, 0.34830859375], [16.0, 0.34830859375], [16.0, 0.34830859375], [16.0, 0.34830859375], [16.0, 0.34830859375], [16.0, 0.34830859375], [16.0, 0.34830859375], [16.0, 0.34830859375], [16.0, 0.34830859375], [16.0, 0.34830859375], [16.0, 0.34830859375], [16.0, 0.34830859375], [16.0, 0.34830859375], [16.0, 0.34830859375], [16.0, 0.34830859375], [16.0, 0.34830859375], [16.0, 0.34830859375], [16.0, 0.34830859375], [16.0, 0.34830859375], [16.0, 0.34830859375], [16.0, 0.34830859375], [16.0, 0.34830859375], [16.0, 0.34830859375], [16.0, 0.34830859375], [16.0, 0.34830859375], [16.0, 0.34830859375], [16.0, 0.34830859375], [16.0, 0.34830859375], [16.0, 0.34830859375], [16.0, 0.34830859375], [16.0, 0.34830859375], [16.0, 0.34830859375], [16.0, 0.34830859375], [16.0, 0.34830859375], [16.0, 0.34830859375], [16.0, 0.34830859375], [16.0, 0.34830859375], [16.0, 0.34830859375], [16.0, 0.34830859375], [16.0, 0.34830859375], [16.0, 0.34830859375], [16.0, 0.34830859375], [16.0, 0.34830859375], [16.0, 0.34830859375], [16.0, 0.34830859375], [16.0, 0.34830859375], [16.0, 0.34830859375], [16.0, 0.34830859375], [16.0, 0.34830859375], [16.0, 0.34830859375], [16.0, 0.34830859375], [16.0, 0.34830859375], [16.0, 0.34830859375], [16.0, 0.34830859375], [16.0, 0.34830859375], [16.0, 0.34830859375], [16.0, 0.34830859375], [16.0, 0.34830859375], [16.0, 0.34830859375], [16.0, 0.34830859375], [16.0, 0.34830859375], [16.0, 0.34830859375], [16.0, 0.34830859375], [16.0, 0.34830859375], [16.0, 0.34830859375], [16.0, 0.34830859375], [16.0, 0.34830859375], [16.0, 0.34830859375], [16.0, 0.34830859375], [16.0, 0.34830859375], [16.0, 0.34830859375], [16.0, 0.34830859375], [16.0, 0.34830859375], [16.0, 0.34830859375], [16.0, 0.34830859375], [16.0, 0.34830859375], [16.0, 0.34830859375], [16.0, 0.34830859375], [16.0, 0.34830859375], [16.0, 0.34830859375], [16.0, 0.34830859375], [16.0, 0.34830859375], [16.0, 0.34830859375], [16.0, 0.34830859375], [16.0, 0.34830859375], [16.0, 0.34830859375], [16.0, 0.34830859375], [16.0, 0.34830859375], [16.0, 0.34830859375], [16.0, 0.34830859375], [16.0, 0.34830859375], [16.0, 0.34830859375], [16.0, 0.34830859375], [16.0, 0.34830859375], [16.0, 0.34830859375], [16.0, 0.34830859375], [16.0, 0.34830859375], [16.0, 0.34830859375], [16.0, 0.34830859375], [16.0, 0.34830859375], [16.0, 0.34830859375], [16.0, 0.34830859375], [16.0, 0.34830859375], [16.0, 0.34830859375], [16.0, 0.34830859375], [16.0, 0.34830859375], [16.0, 0.34830859375], [16.0, 0.34830859375], [16.0, 0.34830859375], [16.0, 0.34830859375], [16.0, 0.34830859375], [16.0, 0.34830859375], [16.0, 0.34830859375], [16.0, 0.34830859375], [16.0, 0.34830859375], [16.0, 0.34830859375], [16.0, 0.34830859375], [16.0, 0.34830859375], [16.0, 0.34830859375], [16.0, 0.34830859375], [16.0, 0.34830859375], [16.0, 0.34830859375], [16.0, 0.34830859375], [16.0, 0.34830859375], [16.0, 0.34830859375], [16.0, 0.34830859375], [16.0, 0.34830859375], [16.0, 0.34830859375], [16.0, 0.34830859375], [16.0, 0.34830859375], [16.0, 0.34830859375], [16.0, 0.34830859375], [16.0, 0.34830859375], [16.0, 0.34830859375], [16.0, 0.34830859375], [16.0, 0.34830859375], [16.0, 0.34830859375], [16.0, 0.34830859375], [16.0, 0.34830859375], [16.0, 0.34830859375], [16.0, 0.34830859375], [16.0, 0.34830859375], [16.0, 0.34830859375], [16.0, 0.34830859375], [16.0, 0.34830859375], [16.0, 0.34830859375], [16.0, 0.34830859375], [16.0, 0.34830859375], [16.0, 0.34830859375], [16.0, 0.34830859375], [16.0, 0.34830859375], [16.0, 0.34830859375], [16.0, 0.34830859375], [16.0, 0.34830859375], [16.0, 0.34830859375], [16.0, 0.34830859375], [16.0, 0.34830859375], [16.0, 0.34830859375], [16.0, 0.34830859375], [16.0, 0.34830859375], [16.0, 0.34830859375], [16.0, 0.34830859375], [16.0, 0.34830859375], [16.0, 0.34830859375], [16.0, 0.34830859375], [16.0, 0.34830859375], [16.0, 0.34830859375], [16.0, 0.34830859375], [16.0, 0.34830859375], [16.0, 0.34830859375], [16.0, 0.34830859375], [16.0, 0.34830859375], [16.0, 0.34830859375], [16.0, 0.34830859375], [16.0, 0.34830859375], [16.0, 0.34830859375], [16.0, 0.34830859375], [16.0, 0.34830859375], [16.0, 0.34830859375], [16.0, 0.34830859375], [16.0, 0.34830859375], [16.0, 0.34830859375], [16.0, 0.34830859375], [16.0, 0.34830859375], [16.0, 0.34830859375], [16.0, 0.34830859375], [16.0, 0.34830859375], [16.0, 0.34830859375], [16.0, 0.34830859375], [16.0, 0.34830859375], [16.0, 0.34830859375], [16.0, 0.34830859375], [16.0, 0.34830859375], [16.0, 0.34830859375], [16.0, 0.34830859375], [16.0, 0.34830859375], [16.0, 0.34830859375], [16.0, 0.34830859375], [16.0, 0.34830859375], [16.0, 0.34830859375], [16.0, 0.34830859375], [16.0, 0.34830859375], [16.0, 0.34830859375], [16.0, 0.34830859375], [16.0, 0.34830859375], [16.0, 0.34830859375], [16.0, 0.34830859375], [16.0, 0.34830859375], [16.0, 0.34830859375], [16.0, 0.34830859375], [16.0, 0.34830859375], [16.0, 0.34830859375], [16.0, 0.34830859375], [16.0, 0.34830859375], [16.0, 0.34830859375], [16.0, 0.34830859375], [16.0, 0.34830859375], [16.0, 0.34830859375], [16.0, 0.34830859375], [16.0, 0.34830859375], [16.0, 0.34830859375], [16.0, 0.34830859375], [16.0, 0.34830859375], [16.0, 0.34830859375], [16.0, 0.34830859375], [16.0, 0.34830859375], [16.0, 0.34830859375], [16.0, 0.34830859375], [16.0, 0.34830859375], [16.0, 0.34830859375], [16.0, 0.34830859375], [16.0, 0.34830859375], [16.0, 0.34830859375], [16.0, 0.34830859375], [16.0, 0.34830859375], [16.0, 0.34830859375], [16.0, 0.34830859375], [16.0, 0.34830859375], [16.0, 0.34830859375], [16.0, 0.34830859375], [16.0, 0.34830859375], [16.0, 0.34830859375], [16.0, 0.34830859375], [16.0, 0.34830859375], [16.0, 0.34830859375], [16.0, 0.34830859375], [16.0, 0.34830859375], [16.0, 0.34830859375], [16.0, 0.34830859375], [16.0, 0.34830859375], [16.0, 0.34830859375], [16.0, 0.34830859375], [16.0, 0.34830859375], [16.0, 0.34830859375], [16.0, 0.34830859375], [16.0, 0.34830859375], [16.0, 0.34830859375], [16.0, 0.34830859375], [16.0, 0.34830859375], [16.0, 0.34830859375], [16.0, 0.34830859375], [16.0, 0.34830859375], [16.0, 0.34830859375], [16.0, 0.34830859375], [16.0, 0.34830859375], [16.0, 0.34830859375], [16.0, 0.34830859375], [16.0, 0.34830859375], [16.0, 0.34830859375], [16.0, 0.34830859375], [16.0, 0.34830859375], [16.0, 0.34830859375], [16.0, 0.34830859375], [16.0, 0.34830859375], [16.0, 0.34830859375], [16.0, 0.34830859375], [16.0, 0.34830859375], [16.0, 0.34830859375], [16.0, 0.34830859375], [16.0, 0.34830859375], [16.0, 0.34830859375], [16.0, 0.34830859375], [16.0, 0.34830859375], [16.0, 0.34830859375], [16.0, 0.34830859375], [16.0, 0.34830859375], [16.0, 0.34830859375], [16.0, 0.34830859375], [16.0, 0.34830859375], [16.0, 0.34830859375], [16.0, 0.34830859375], [16.0, 0.34830859375], [16.0, 0.34830859375], [16.0, 0.34830859375], [16.0, 0.34830859375], [16.0, 0.34830859375], [16.0, 0.34830859375], [16.0, 0.34830859375], [16.0, 0.34830859375], [16.0, 0.34830859375], [16.0, 0.34830859375], [16.0, 0.34830859375], [16.0, 0.34830859375], [16.0, 0.34830859375], [16.0, 0.34830859375], [16.0, 0.34830859375], [16.0, 0.34830859375], [16.0, 0.34830859375], [16.0, 0.34830859375], [16.0, 0.34830859375], [16.0, 0.34830859375], [16.0, 0.34830859375], [16.0, 0.34830859375], [16.0, 0.34830859375], [16.0, 0.34830859375], [16.0, 0.34830859375], [16.0, 0.34830859375], [16.0, 0.34830859375], [16.0, 0.34830859375], [16.0, 0.34830859375], [16.0, 0.34830859375], [16.0, 0.34830859375], [16.0, 0.34830859375], [16.0, 0.34830859375], [16.0, 0.34830859375], [16.0, 0.34830859375], [16.0, 0.34830859375], [16.0, 0.34830859375], [16.0, 0.34830859375], [16.0, 0.34830859375], [16.0, 0.34830859375], [16.0, 0.34830859375], [16.0, 0.34830859375], [16.0, 0.34830859375], [16.0, 0.34830859375], [16.0, 0.34830859375], [16.0, 0.34830859375], [16.0, 0.34830859375], [16.0, 0.34830859375], [16.0, 0.34830859375], [16.0, 0.34830859375], [16.0, 0.34830859375], [16.0, 0.34830859375], [16.0, 0.34830859375], [16.0, 0.34830859375], [16.0, 0.34830859375], [16.0, 0.34830859375], [16.0, 0.34830859375], [16.0, 0.34830859375], [16.0, 0.34830859375], [16.0, 0.34830859375], [16.0, 0.34830859375], [16.0, 0.34830859375], [16.0, 0.34830859375], [16.0, 0.34830859375], [16.0, 0.34830859375], [16.0, 0.34830859375], [16.0, 0.34830859375], [16.0, 0.34830859375], [16.0, 0.34830859375], [16.0, 0.34830859375], [16.0, 0.34830859375], [16.0, 0.34830859375], [16.0, 0.34830859375], [16.0, 0.34830859375], [16.0, 0.34830859375], [16.0, 0.34830859375], [16.0, 0.34830859375], [16.0, 0.34830859375], [16.0, 0.34830859375], [16.0, 0.34830859375], [16.0, 0.34830859375], [16.0, 0.34830859375], [16.0, 0.34830859375], [16.0, 0.34830859375], [16.0, 0.34830859375], [16.0, 0.34830859375], [16.0, 0.34830859375], [16.0, 0.34830859375], [16.0, 0.34830859375], [16.0, 0.34830859375], [16.0, 0.34830859375], [16.0, 0.34830859375], [16.0, 0.34830859375], [16.0, 0.34830859375], [16.0, 0.34830859375], [16.0, 0.34830859375], [16.0, 0.34830859375], [16.0, 0.34830859375], [16.0, 0.34830859375], [16.0, 0.34830859375], [16.0, 0.34830859375], [16.0, 0.34830859375], [16.0, 0.34830859375], [16.0, 0.34830859375], [16.0, 0.34830859375], [16.0, 0.34830859375], [16.0, 0.34830859375], [16.0, 0.34830859375], [16.0, 0.34830859375], [16.0, 0.34830859375], [16.0, 0.34830859375], [16.0, 0.34830859375], [16.0, 0.34830859375], [16.0, 0.34830859375], [16.0, 0.34830859375], [16.0, 0.34830859375], [16.0, 0.34830859375], [16.0, 0.34830859375], [16.0, 0.34830859375], [16.0, 0.34830859375], [16.0, 0.34830859375], [16.0, 0.34830859375], [16.0, 0.34830859375], [16.0, 0.34830859375], [16.0, 0.34830859375], [16.0, 0.34830859375], [16.0, 0.34830859375], [16.0, 0.34830859375], [16.0, 0.34830859375], [16.0, 0.34830859375], [16.0, 0.34830859375], [16.0, 0.34830859375], [16.0, 0.34830859375], [16.0, 0.34830859375], [16.0, 0.34830859375], [16.0, 0.34830859375], [16.0, 0.34830859375], [16.0, 0.34830859375], [16.0, 0.34830859375], [16.0, 0.34830859375], [16.0, 0.34830859375], [16.0, 0.34830859375], [16.0, 0.34830859375], [16.0, 0.34830859375], [16.0, 0.34830859375], [16.0, 0.34830859375], [16.0, 0.34830859375], [16.0, 0.34830859375], [16.0, 0.34830859375], [16.0, 0.34830859375], [16.0, 0.34830859375], [16.0, 0.34830859375], [16.0, 0.34830859375], [16.0, 0.34830859375], [16.0, 0.34830859375], [16.0, 0.34830859375], [16.0, 0.34830859375], [16.0, 0.34830859375], [16.0, 0.34830859375], [16.0, 0.34830859375], [16.0, 0.34830859375], [16.0, 0.34830859375], [16.0, 0.34830859375], [16.0, 0.34830859375], [16.0, 0.34830859375], [16.0, 0.34830859375], [16.0, 0.34830859375], [16.0, 0.34830859375], [16.0, 0.34830859375], [16.0, 0.34830859375], [16.0, 0.34830859375], [16.0, 0.34830859375], [16.0, 0.34830859375], [16.0, 0.34830859375], [16.0, 0.34830859375], [16.0, 0.34830859375], [16.0, 0.34830859375], [16.0, 0.34830859375], [16.0, 0.34830859375], [16.0, 0.34830859375], [16.0, 0.34830859375], [16.0, 0.34830859375], [16.0, 0.34830859375], [16.0, 0.34830859375], [16.0, 0.34830859375], [16.0, 0.34830859375], [16.0, 0.34830859375], [16.0, 0.34830859375], [16.0, 0.34830859375], [16.0, 0.34830859375], [16.0, 0.34830859375], [16.0, 0.34830859375], [16.0, 0.34830859375], [16.0, 0.34830859375], [16.0, 0.34830859375], [16.0, 0.34830859375], [16.0, 0.34830859375], [16.0, 0.34830859375], [16.0, 0.34830859375], [16.0, 0.34830859375], [16.0, 0.34830859375], [16.0, 0.34830859375], [16.0, 0.34830859375], [16.0, 0.34830859375], [16.0, 0.34830859375], [16.0, 0.34830859375], [16.0, 0.34830859375], [16.0, 0.34830859375], [16.0, 0.34830859375], [16.0, 0.34830859375], [16.0, 0.34830859375], [16.0, 0.34830859375], [16.0, 0.34830859375], [16.0, 0.34830859375], [16.0, 0.34830859375], [16.0, 0.34830859375], [16.0, 0.34830859375], [16.0, 0.34830859375], [16.0, 0.34830859375], [16.0, 0.34830859375], [16.0, 0.34830859375], [16.0, 0.34830859375], [16.0, 0.34830859375], [16.0, 0.34830859375], [16.0, 0.34830859375], [16.0, 0.34830859375], [16.0, 0.34830859375], [16.0, 0.34830859375], [16.0, 0.34830859375], [16.0, 0.34830859375], [16.0, 0.34830859375], [16.0, 0.34830859375], [16.0, 0.34830859375], [16.0, 0.34830859375], [16.0, 0.34830859375], [16.0, 0.34830859375], [16.0, 0.34830859375], [16.0, 0.34830859375], [16.0, 0.34830859375], [16.0, 0.34830859375], [16.0, 0.34830859375], [16.0, 0.34830859375], [16.0, 0.34830859375], [16.0, 0.34830859375], [16.0, 0.34830859375], [16.0, 0.34830859375], [16.0, 0.34830859375], [16.0, 0.34830859375], [16.0, 0.34830859375], [16.0, 0.34830859375], [16.0, 0.34830859375], [16.0, 0.34830859375], [16.0, 0.34830859375], [16.0, 0.34830859375], [16.0, 0.34830859375], [16.0, 0.34830859375], [16.0, 0.34830859375], [16.0, 0.34830859375], [16.0, 0.34830859375], [16.0, 0.34830859375], [16.0, 0.34830859375], [16.0, 0.34830859375], [16.0, 0.34830859375], [16.0, 0.34830859375], [16.0, 0.34830859375], [16.0, 0.34830859375], [16.0, 0.34830859375], [16.0, 0.34830859375], [16.0, 0.34830859375], [16.0, 0.34830859375], [16.0, 0.34830859375], [16.0, 0.34830859375], [16.0, 0.34830859375], [16.0, 0.34830859375], [16.0, 0.34830859375], [16.0, 0.34830859375], [16.0, 0.34830859375], [16.0, 0.34830859375], [16.0, 0.34830859375], [16.0, 0.34830859375], [16.0, 0.34830859375], [16.0, 0.34830859375], [16.0, 0.34830859375], [16.0, 0.34830859375], [16.0, 0.34830859375], [16.0, 0.34830859375], [16.0, 0.34830859375], [16.0, 0.34830859375], [16.0, 0.34830859375], [16.0, 0.34830859375], [16.0, 0.34830859375], [16.0, 0.34830859375], [16.0, 0.34830859375], [16.0, 0.34830859375], [16.0, 0.34830859375], [16.0, 0.34830859375], [16.0, 0.34830859375], [16.0, 0.34830859375], [16.0, 0.34830859375], [16.0, 0.34830859375], [16.0, 0.34830859375], [16.0, 0.34830859375], [16.0, 0.34830859375], [16.0, 0.34830859375], [16.0, 0.34830859375], [16.0, 0.34830859375], [16.0, 0.34830859375], [16.0, 0.34830859375], [16.0, 0.34830859375], [16.0, 0.34830859375], [16.0, 0.34830859375], [16.0, 0.34830859375], [16.0, 0.34830859375], [16.0, 0.34830859375], [16.0, 0.34830859375], [16.0, 0.34830859375], [16.0, 0.34830859375], [16.0, 0.34830859375], [16.0, 0.34830859375], [16.0, 0.34830859375], [16.0, 0.34830859375], [16.0, 0.34830859375], [16.0, 0.34830859375], [16.0, 0.34830859375], [16.0, 0.34830859375], [16.0, 0.34830859375], [16.0, 0.34830859375], [16.0, 0.34830859375], [16.0, 0.34830859375], [16.0, 0.34830859375], [16.0, 0.34830859375], [16.0, 0.34830859375], [16.0, 0.34830859375], [16.0, 0.34830859375], [16.0, 0.34830859375], [16.0, 0.34830859375], [16.0, 0.34830859375], [16.0, 0.34830859375], [16.0, 0.34830859375], [16.0, 0.34830859375], [16.0, 0.34830859375], [16.0, 0.34830859375], [16.0, 0.34830859375], [16.0, 0.34830859375], [16.0, 0.34830859375], [16.0, 0.34830859375], [16.0, 0.34830859375], [16.0, 0.34830859375], [16.0, 0.34830859375], [16.0, 0.34830859375], [16.0, 0.34830859375], [16.0, 0.34830859375], [16.0, 0.34830859375], [16.0, 0.34830859375], [16.0, 0.34830859375], [16.0, 0.34830859375], [16.0, 0.34830859375], [16.0, 0.34830859375], [16.0, 0.34830859375], [16.0, 0.34830859375], [16.0, 0.34830859375], [16.0, 0.34830859375], [16.0, 0.34830859375], [16.0, 0.34830859375], [16.0, 0.34830859375], [16.0, 0.34830859375], [16.0, 0.34830859375], [16.0, 0.34830859375], [16.0, 0.34830859375], [16.0, 0.34830859375], [16.0, 0.34830859375], [16.0, 0.34830859375], [16.0, 0.34830859375], [16.0, 0.34830859375], [16.0, 0.34830859375], [16.0, 0.34830859375], [16.0, 0.34830859375], [16.0, 0.34830859375], [16.0, 0.34830859375], [16.0, 0.34830859375], [16.0, 0.34830859375], [16.0, 0.34830859375], [16.0, 0.34830859375], [16.0, 0.34830859375], [16.0, 0.34830859375], [16.0, 0.34830859375], [16.0, 0.34830859375], [16.0, 0.34830859375], [16.0, 0.34830859375], [16.0, 0.34830859375], [16.0, 0.34830859375], [16.0, 0.34830859375], [16.0, 0.34830859375], [16.0, 0.34830859375], [16.0, 0.34830859375], [16.0, 0.34830859375], [16.0, 0.34830859375], [16.0, 0.34830859375], [16.0, 0.34830859375], [16.0, 0.34830859375], [16.0, 0.34830859375], [16.0, 0.34830859375], [16.0, 0.34830859375], [16.0, 0.34830859375], [16.0, 0.34830859375], [16.0, 0.34830859375], [16.0, 0.34830859375], [16.0, 0.34830859375], [16.0, 0.34830859375], [16.0, 0.34830859375], [16.0, 0.34830859375], [16.0, 0.34830859375], [16.0, 0.34830859375], [16.0, 0.34830859375], [16.0, 0.34830859375], [16.0, 0.34830859375], [16.0, 0.34830859375], [16.0, 0.34830859375], [16.0, 0.34830859375], [16.0, 0.34830859375], [16.0, 0.34830859375], [16.0, 0.34830859375], [16.0, 0.34830859375], [16.0, 0.34830859375], [16.0, 0.34830859375], [16.0, 0.34830859375], [16.0, 0.34830859375], [16.0, 0.34830859375], [16.0, 0.34830859375], [16.0, 0.34830859375], [16.0, 0.34830859375], [16.0, 0.34830859375], [16.0, 0.34830859375], [16.0, 0.34830859375], [16.0, 0.34830859375], [16.0, 0.34830859375], [16.0, 0.34830859375], [16.0, 0.34830859375], [16.0, 0.34830859375], [16.0, 0.34830859375], [16.0, 0.34830859375], [16.0, 0.34830859375], [16.0, 0.34830859375], [16.0, 0.34830859375], [16.0, 0.34830859375], [16.0, 0.34830859375], [16.0, 0.34830859375], [16.0, 0.34830859375], [16.0, 0.34830859375], [16.0, 0.34830859375], [16.0, 0.34830859375], [16.0, 0.34830859375], [16.0, 0.34830859375], [16.0, 0.34830859375], [16.0, 0.34830859375], [16.0, 0.34830859375], [16.0, 0.34830859375], [16.0, 0.34830859375], [16.0, 0.34830859375], [16.0, 0.34830859375], [16.0, 0.34830859375], [16.0, 0.34830859375], [16.0, 0.34830859375], [16.0, 0.34830859375], [16.0, 0.34830859375], [16.0, 0.34830859375], [16.0, 0.34830859375], [16.0, 0.34830859375], [16.0, 0.34830859375], [16.0, 0.34830859375], [16.0, 0.34830859375], [16.0, 0.34830859375], [16.0, 0.34830859375], [16.0, 0.34830859375], [16.0, 0.34830859375], [16.0, 0.34830859375], [16.0, 0.34830859375], [16.0, 0.34830859375], [16.0, 0.34830859375], [16.0, 0.34830859375], [16.0, 0.34830859375], [16.0, 0.34830859375], [16.0, 0.34830859375], [16.0, 0.34830859375], [16.0, 0.34830859375], [16.0, 0.34830859375], [16.0, 0.34830859375], [16.0, 0.34830859375], [16.0, 0.34830859375], [16.0, 0.34830859375], [16.0, 0.34830859375], [16.0, 0.34830859375], [16.0, 0.34830859375], [16.0, 0.34830859375], [16.0, 0.34830859375], [16.0, 0.34830859375], [16.0, 0.34830859375], [16.0, 0.34830859375], [16.0, 0.34830859375], [16.0, 0.34830859375], [16.0, 0.34830859375], [16.0, 0.34830859375], [16.0, 0.34830859375], [16.0, 0.34830859375], [16.0, 0.34830859375], [16.0, 0.34830859375], [16.0, 0.34830859375], [16.0, 0.34830859375], [16.0, 0.34830859375], [16.0, 0.34830859375], [16.0, 0.34830859375], [16.0, 0.34830859375], [16.0, 0.34830859375], [16.0, 0.34830859375], [16.0, 0.34830859375], [16.0, 0.34830859375], [16.0, 0.34830859375], [16.0, 0.34830859375], [16.0, 0.34830859375], [16.0, 0.34830859375], [16.0, 0.34830859375], [16.0, 0.34830859375], [16.0, 0.34830859375], [16.0, 0.34830859375], [16.0, 0.34830859375], [16.0, 0.34830859375], [16.0, 0.34830859375], [16.0, 0.34830859375], [16.0, 0.34830859375], [16.0, 0.34830859375], [16.0, 0.34830859375], [16.0, 0.34830859375], [16.0, 0.34830859375], [16.0, 0.34830859375], [16.0, 0.34830859375], [16.0, 0.34830859375], [16.0, 0.34830859375], [16.0, 0.34830859375], [16.0, 0.34830859375], [16.0, 0.34830859375], [16.0, 0.34830859375], [16.0, 0.34830859375], [16.0, 0.34830859375], [16.0, 0.34830859375], [16.0, 0.34830859375], [16.0, 0.34830859375], [16.0, 0.34830859375], [16.0, 0.34830859375], [16.0, 0.34830859375], [16.0, 0.34830859375], [16.0, 0.34830859375], [16.0, 0.34830859375], [16.0, 0.34830859375], [16.0, 0.34830859375], [16.0, 0.34830859375], [16.0, 0.34830859375], [16.0, 0.34830859375], [16.0, 0.34830859375], [16.0, 0.34830859375], [16.0, 0.34830859375], [16.0, 0.34830859375], [16.0, 0.34830859375], [16.0, 0.34830859375], [16.0, 0.34830859375], [16.0, 0.34830859375], [16.0, 0.34830859375], [16.0, 0.34830859375], [16.0, 0.34830859375], [16.0, 0.34830859375], [16.0, 0.34830859375], [16.0, 0.34830859375], [16.0, 0.34830859375], [16.0, 0.34830859375], [16.0, 0.34830859375], [16.0, 0.34830859375], [16.0, 0.34830859375], [16.0, 0.34830859375], [16.0, 0.34830859375], [16.0, 0.34830859375], [16.0, 0.34830859375], [16.0, 0.34830859375], [16.0, 0.34830859375], [16.0, 0.34830859375], [16.0, 0.34830859375], [16.0, 0.34830859375], [16.0, 0.34830859375], [16.0, 0.34830859375], [16.0, 0.34830859375], [16.0, 0.34830859375], [16.0, 0.34830859375], [16.0, 0.34830859375], [16.0, 0.34830859375], [16.0, 0.34830859375], [16.0, 0.34830859375], [16.0, 0.34830859375], [16.0, 0.34830859375], [16.0, 0.34830859375], [16.0, 0.34830859375], [16.0, 0.34830859375], [16.0, 0.34830859375], [16.0, 0.34830859375], [16.0, 0.34830859375], [16.0, 0.34830859375], [16.0, 0.34830859375], [16.0, 0.34830859375], [16.0, 0.34830859375], [16.0, 0.34830859375], [16.0, 0.34830859375], [16.0, 0.34830859375], [16.0, 0.34830859375], [16.0, 0.34830859375], [16.0, 0.34830859375], [16.0, 0.34830859375], [16.0, 0.34830859375], [16.0, 0.34830859375], [16.0, 0.34830859375], [16.0, 0.34830859375], [16.0, 0.34830859375], [16.0, 0.34830859375], [16.0, 0.34830859375], [16.0, 0.34830859375], [16.0, 0.34830859375], [16.0, 0.34830859375], [16.0, 0.34830859375], [16.0, 0.34830859375], [16.0, 0.34830859375], [16.0, 0.34830859375], [16.0, 0.34830859375], [16.0, 0.34830859375], [16.0, 0.34830859375], [16.0, 0.34830859375], [16.0, 0.34830859375], [16.0, 0.34830859375], [16.0, 0.34830859375], [16.0, 0.34830859375], [16.0, 0.34830859375], [16.0, 0.34830859375], [16.0, 0.34830859375], [16.0, 0.34830859375], [16.0, 0.34830859375], [16.0, 0.34830859375], [16.0, 0.34830859375], [16.0, 0.34830859375], [16.0, 0.34830859375], [16.0, 0.34830859375], [16.0, 0.34830859375], [16.0, 0.34830859375], [16.0, 0.34830859375], [16.0, 0.34830859375], [16.0, 0.34830859375], [16.0, 0.34830859375], [16.0, 0.34830859375], [16.0, 0.34830859375], [16.0, 0.34830859375], [16.0, 0.34830859375], [16.0, 0.34830859375], [16.0, 0.34830859375], [16.0, 0.34830859375], [16.0, 0.34830859375], [16.0, 0.34830859375], [16.0, 0.34830859375], [16.0, 0.34830859375], [16.0, 0.34830859375], [16.0, 0.34830859375], [16.0, 0.34830859375], [16.0, 0.34830859375], [16.0, 0.34830859375], [16.0, 0.34830859375], [16.0, 0.34830859375], [16.0, 0.34830859375], [16.0, 0.34830859375], [16.0, 0.34830859375], [16.0, 0.34830859375], [16.0, 0.34830859375], [16.0, 0.34830859375], [16.0, 0.34830859375], [16.0, 0.34830859375], [16.0, 0.34830859375], [16.0, 0.34830859375], [16.0, 0.34830859375], [16.0, 0.34830859375], [16.0, 0.34830859375], [16.0, 0.34830859375], [16.0, 0.34830859375], [16.0, 0.34830859375], [16.0, 0.34830859375], [16.0, 0.34830859375], [16.0, 0.34830859375], [16.0, 0.34830859375], [16.0, 0.34830859375], [16.0, 0.34830859375], [16.0, 0.34830859375], [16.0, 0.34830859375], [16.0, 0.34830859375], [16.0, 0.34830859375], [16.0, 0.34830859375], [16.0, 0.34830859375], [16.0, 0.34830859375], [16.0, 0.34830859375], [16.0, 0.34830859375], [16.0, 0.34830859375], [16.0, 0.34830859375], [16.0, 0.34830859375], [16.0, 0.34830859375], [16.0, 0.34830859375], [16.0, 0.34830859375], [16.0, 0.34830859375], [16.0, 0.34830859375], [16.0, 0.34830859375], [16.0, 0.34830859375], [16.0, 0.34830859375], [16.0, 0.34830859375], [16.0, 0.34830859375], [16.0, 0.34830859375], [16.0, 0.34830859375], [16.0, 0.34830859375], [16.0, 0.34830859375], [16.0, 0.34830859375], [16.0, 0.34830859375], [16.0, 0.34830859375], [16.0, 0.34830859375], [16.0, 0.34830859375], [16.0, 0.34830859375], [16.0, 0.34830859375], [16.0, 0.34830859375], [16.0, 0.34830859375], [16.0, 0.34830859375], [16.0, 0.34830859375], [16.0, 0.34830859375], [16.0, 0.34830859375], [16.0, 0.34830859375], [16.0, 0.34830859375], [16.0, 0.34830859375], [16.0, 0.34830859375], [16.0, 0.34830859375], [16.0, 0.34830859375], [16.0, 0.34830859375], [16.0, 0.34830859375], [16.0, 0.34830859375], [16.0, 0.34830859375], [16.0, 0.34830859375], [16.0, 0.34830859375], [16.0, 0.34830859375], [16.0, 0.34830859375], [16.0, 0.34830859375], [16.0, 0.34830859375], [16.0, 0.34830859375], [16.0, 0.34830859375], [16.0, 0.34830859375], [16.0, 0.34830859375], [16.0, 0.34830859375], [16.0, 0.34830859375], [16.0, 0.34830859375], [16.0, 0.34830859375], [16.0, 0.34830859375], [16.0, 0.34830859375], [16.0, 0.34830859375], [16.0, 0.34830859375], [16.0, 0.34830859375], [16.0, 0.34830859375], [16.0, 0.34830859375], [16.0, 0.34830859375], [16.0, 0.34830859375], [16.0, 0.34830859375], [16.0, 0.34830859375], [16.0, 0.34830859375], [16.0, 0.34830859375], [16.0, 0.34830859375], [16.0, 0.34830859375], [16.0, 0.34830859375], [16.0, 0.34830859375], [16.0, 0.34830859375], [16.0, 0.34830859375], [16.0, 0.34830859375], [16.0, 0.34830859375], [16.0, 0.34830859375], [16.0, 0.34830859375], [16.0, 0.34830859375], [16.0, 0.34830859375], [16.0, 0.34830859375], [16.0, 0.34830859375], [16.0, 0.34830859375], [16.0, 0.34830859375], [16.0, 0.34830859375], [16.0, 0.34830859375], [16.0, 0.34830859375], [16.0, 0.34830859375], [16.0, 0.34830859375], [16.0, 0.34830859375], [16.0, 0.34830859375], [16.0, 0.34830859375], [16.0, 0.34830859375], [16.0, 0.34830859375], [16.0, 0.34830859375], [16.0, 0.34830859375], [16.0, 0.34830859375], [16.0, 0.34830859375], [16.0, 0.34830859375], [16.0, 0.34830859375], [16.0, 0.34830859375], [16.0, 0.34830859375], [16.0, 0.34830859375], [16.0, 0.34830859375], [16.0, 0.34830859375], [16.0, 0.34830859375], [16.0, 0.34830859375], [16.0, 0.34830859375], [16.0, 0.34830859375], [16.0, 0.34830859375], [16.0, 0.34830859375], [16.0, 0.34830859375], [16.0, 0.34830859375], [16.0, 0.34830859375], [16.0, 0.34830859375], [16.0, 0.34830859375], [16.0, 0.34830859375], [16.0, 0.34830859375], [16.0, 0.34830859375], [16.0, 0.34830859375], [16.0, 0.34830859375], [16.0, 0.34830859375], [16.0, 0.34830859375], [16.0, 0.34830859375], [16.0, 0.34830859375], [16.0, 0.34830859375], [16.0, 0.34830859375], [16.0, 0.34830859375], [16.0, 0.34830859375], [16.0, 0.34830859375], [16.0, 0.34830859375], [16.0, 0.34830859375], [16.0, 0.34830859375], [16.0, 0.34830859375], [16.0, 0.34830859375], [16.0, 0.34830859375], [16.0, 0.34830859375], [16.0, 0.34830859375], [16.0, 0.34830859375], [16.0, 0.34830859375], [16.0, 0.34830859375], [16.0, 0.34830859375], [16.0, 0.34830859375], [16.0, 0.34830859375], [16.0, 0.34830859375], [16.0, 0.34830859375], [16.0, 0.34830859375], [16.0, 0.34830859375], [16.0, 0.34830859375], [16.0, 0.34830859375], [16.0, 0.34830859375], [16.0, 0.34830859375], [16.0, 0.34830859375], [16.0, 0.34830859375], [16.0, 0.34830859375], [16.0, 0.34830859375], [16.0, 0.34830859375], [16.0, 0.34830859375], [16.0, 0.34830859375], [16.0, 0.34830859375], [16.0, 0.34830859375], [16.0, 0.34830859375], [16.0, 0.34830859375], [16.0, 0.34830859375], [16.0, 0.34830859375], [16.0, 0.34830859375], [16.0, 0.34830859375], [16.0, 0.34830859375], [16.0, 0.34830859375], [16.0, 0.34830859375], [16.0, 0.34830859375], [16.0, 0.34830859375], [16.0, 0.34830859375], [16.0, 0.34830859375], [16.0, 0.34830859375], [16.0, 0.34830859375], [16.0, 0.34830859375], [16.0, 0.34830859375], [16.0, 0.34830859375], [16.0, 0.34830859375], [16.0, 0.34830859375], [16.0, 0.34830859375], [16.0, 0.34830859375], [16.0, 0.34830859375], [16.0, 0.34830859375], [16.0, 0.34830859375], [16.0, 0.34830859375], [16.0, 0.34830859375], [16.0, 0.34830859375], [16.0, 0.34830859375], [16.0, 0.34830859375], [16.0, 0.34830859375], [16.0, 0.34830859375], [16.0, 0.34830859375], [16.0, 0.34830859375], [16.0, 0.34830859375], [16.0, 0.34830859375], [16.0, 0.34830859375], [16.0, 0.34830859375], [16.0, 0.34830859375], [16.0, 0.34830859375], [16.0, 0.34830859375], [16.0, 0.34830859375], [16.0, 0.34830859375], [16.0, 0.34830859375], [16.0, 0.34830859375], [16.0, 0.34830859375], [16.0, 0.34830859375], [16.0, 0.34830859375], [16.0, 0.34830859375], [16.0, 0.34830859375], [16.0, 0.34830859375], [16.0, 0.34830859375], [16.0, 0.34830859375], [16.0, 0.34830859375], [16.0, 0.34830859375], [16.0, 0.34830859375], [16.0, 0.34830859375], [16.0, 0.34830859375], [16.0, 0.34830859375], [16.0, 0.34830859375], [16.0, 0.34830859375], [16.0, 0.34830859375], [16.0, 0.34830859375], [16.0, 0.34830859375], [16.0, 0.34830859375], [16.0, 0.34830859375], [16.0, 0.34830859375], [16.0, 0.34830859375], [16.0, 0.34830859375], [16.0, 0.34830859375], [16.0, 0.34830859375], [16.0, 0.34830859375], [16.0, 0.34830859375], [16.0, 0.34830859375], [16.0, 0.34830859375], [16.0, 0.34830859375], [16.0, 0.34830859375], [16.0, 0.34830859375], [16.0, 0.34830859375], [16.0, 0.34830859375], [16.0, 0.34830859375], [16.0, 0.34830859375], [16.0, 0.34830859375], [16.0, 0.34830859375], [16.0, 0.34830859375], [16.0, 0.34830859375], [16.0, 0.34830859375], [16.0, 0.34830859375], [16.0, 0.34830859375], [16.0, 0.34830859375], [16.0, 0.34830859375], [16.0, 0.34830859375], [16.0, 0.34830859375], [16.0, 0.34830859375], [16.0, 0.34830859375], [16.0, 0.34830859375], [16.0, 0.34830859375], [16.0, 0.34830859375], [16.0, 0.34830859375], [16.0, 0.34830859375], [16.0, 0.34830859375], [16.0, 0.34830859375], [16.0, 0.34830859375], [16.0, 0.34830859375], [16.0, 0.34830859375], [16.0, 0.34830859375], [16.0, 0.34830859375], [16.0, 0.34830859375], [16.0, 0.34830859375], [16.0, 0.34830859375], [16.0, 0.34830859375], [16.0, 0.34830859375], [16.0, 0.34830859375], [16.0, 0.34830859375], [16.0, 0.34830859375], [16.0, 0.34830859375], [16.0, 0.34830859375], [16.0, 0.34830859375], [16.0, 0.34830859375], [16.0, 0.34830859375], [16.0, 0.34830859375], [16.0, 0.34830859375], [16.0, 0.34830859375], [16.0, 0.34830859375], [16.0, 0.34830859375], [16.0, 0.34830859375], [16.0, 0.34830859375], [16.0, 0.34830859375], [16.0, 0.34830859375], [16.0, 0.34830859375], [16.0, 0.34830859375], [16.0, 0.34830859375], [16.0, 0.34830859375], [16.0, 0.34830859375], [16.0, 0.34830859375], [16.0, 0.34830859375], [16.0, 0.34830859375], [16.0, 0.34830859375], [16.0, 0.34830859375], [16.0, 0.34830859375], [16.0, 0.34830859375], [16.0, 0.34830859375], [16.0, 0.34830859375], [16.0, 0.34830859375], [16.0, 0.34830859375], [16.0, 0.34830859375], [16.0, 0.34830859375], [16.0, 0.34830859375], [16.0, 0.34830859375], [16.0, 0.34830859375], [16.0, 0.34830859375], [16.0, 0.34830859375], [16.0, 0.34830859375], [16.0, 0.34830859375], [16.0, 0.34830859375], [16.0, 0.34830859375], [16.0, 0.34830859375], [16.0, 0.34830859375], [16.0, 0.34830859375], [16.0, 0.34830859375], [16.0, 0.34830859375], [16.0, 0.34830859375], [16.0, 0.34830859375], [16.0, 0.34830859375], [16.0, 0.34830859375], [16.0, 0.34830859375], [16.0, 0.34830859375], [16.0, 0.34830859375], [16.0, 0.34830859375], [16.0, 0.34830859375], [16.0, 0.34830859375], [16.0, 0.34830859375], [16.0, 0.34830859375], [16.0, 0.34830859375], [16.0, 0.34830859375], [16.0, 0.34830859375], [16.0, 0.34830859375], [16.0, 0.34830859375], [16.0, 0.34830859375], [16.0, 0.34830859375], [16.0, 0.34830859375], [16.0, 0.34830859375], [16.0, 0.34830859375], [16.0, 0.34830859375], [16.0, 0.34830859375], [16.0, 0.34830859375], [16.0, 0.34830859375], [16.0, 0.34830859375], [16.0, 0.34830859375], [16.0, 0.34830859375], [16.0, 0.34830859375], [16.0, 0.34830859375], [16.0, 0.34830859375], [16.0, 0.34830859375], [16.0, 0.34830859375], [16.0, 0.34830859375], [16.0, 0.34830859375], [16.0, 0.34830859375], [16.0, 0.34830859375], [16.0, 0.34830859375], [16.0, 0.34830859375], [16.0, 0.34830859375], [16.0, 0.34830859375], [16.0, 0.34830859375], [16.0, 0.34830859375], [16.0, 0.34830859375], [16.0, 0.34830859375], [16.0, 0.34830859375], [16.0, 0.34830859375], [16.0, 0.34830859375], [16.0, 0.34830859375], [16.0, 0.34830859375], [16.0, 0.34830859375], [16.0, 0.34830859375], [16.0, 0.34830859375], [16.0, 0.34830859375], [16.0, 0.34830859375], [16.0, 0.34830859375], [16.0, 0.34830859375], [16.0, 0.34830859375], [16.0, 0.34830859375], [16.0, 0.34830859375], [16.0, 0.34830859375], [16.0, 0.34830859375], [16.0, 0.34830859375], [16.0, 0.34830859375], [16.0, 0.34830859375], [16.0, 0.34830859375], [16.0, 0.34830859375], [16.0, 0.34830859375], [16.0, 0.34830859375], [16.0, 0.34830859375], [16.0, 0.34830859375], [16.0, 0.34830859375], [16.0, 0.34830859375], [16.0, 0.34830859375], [16.0, 0.34830859375], [16.0, 0.34830859375], [16.0, 0.34830859375], [16.0, 0.34830859375], [16.0, 0.34830859375], [16.0, 0.34830859375], [16.0, 0.34830859375], [16.0, 0.34830859375], [16.0, 0.34830859375], [16.0, 0.34830859375], [16.0, 0.34830859375], [16.0, 0.34830859375], [16.0, 0.34830859375], [16.0, 0.34830859375], [16.0, 0.34830859375], [16.0, 0.34830859375], [16.0, 0.34830859375], [16.0, 0.34830859375], [16.0, 0.34830859375], [16.0, 0.34830859375], [16.0, 0.34830859375], [16.0, 0.34830859375], [16.0, 0.34830859375], [16.0, 0.34830859375], [16.0, 0.34830859375], [16.0, 0.34830859375], [16.0, 0.34830859375], [16.0, 0.34830859375], [16.0, 0.34830859375], [16.0, 0.34830859375], [16.0, 0.34830859375], [16.0, 0.34830859375], [16.0, 0.34830859375], [16.0, 0.34830859375], [16.0, 0.34830859375], [16.0, 0.34830859375], [16.0, 0.34830859375], [16.0, 0.34830859375], [16.0, 0.34830859375], [16.0, 0.34830859375], [16.0, 0.34830859375], [16.0, 0.34830859375], [16.0, 0.34830859375], [16.0, 0.34830859375], [16.0, 0.34830859375], [16.0, 0.34830859375], [16.0, 0.34830859375], [16.0, 0.34830859375], [16.0, 0.34830859375], [16.0, 0.34830859375], [16.0, 0.34830859375], [16.0, 0.34830859375], [16.0, 0.34830859375], [16.0, 0.34830859375], [16.0, 0.34830859375], [16.0, 0.34830859375], [16.0, 0.34830859375], [16.0, 0.34830859375], [16.0, 0.34830859375], [16.0, 0.34830859375], [16.0, 0.34830859375], [16.0, 0.34830859375], [16.0, 0.34830859375], [16.0, 0.34830859375], [16.0, 0.34830859375], [16.0, 0.34830859375], [16.0, 0.34830859375], [16.0, 0.34830859375], [16.0, 0.34830859375], [16.0, 0.34830859375], [16.0, 0.34830859375], [16.0, 0.34830859375], [16.0, 0.34830859375], [16.0, 0.34830859375], [16.0, 0.34830859375], [16.0, 0.34830859375], [16.0, 0.34830859375], [16.0, 0.34830859375], [16.0, 0.34830859375], [16.0, 0.34830859375], [16.0, 0.34830859375], [16.0, 0.34830859375], [16.0, 0.34830859375], [16.0, 0.34830859375], [16.0, 0.34830859375], [16.0, 0.34830859375], [16.0, 0.34830859375], [16.0, 0.34830859375], [16.0, 0.34830859375], [16.0, 0.34830859375], [16.0, 0.34830859375], [16.0, 0.34830859375], [16.0, 0.34830859375], [16.0, 0.34830859375], [16.0, 0.34830859375], [16.0, 0.34830859375], [16.0, 0.34830859375], [16.0, 0.34830859375], [16.0, 0.34830859375], [16.0, 0.34830859375], [16.0, 0.34830859375], [16.0, 0.34830859375], [16.0, 0.34830859375], [16.0, 0.34830859375], [16.0, 0.34830859375], [16.0, 0.34830859375], [16.0, 0.34830859375], [16.0, 0.34830859375], [16.0, 0.34830859375], [16.0, 0.34830859375], [16.0, 0.34830859375], [16.0, 0.34830859375], [16.0, 0.34830859375], [16.0, 0.34830859375], [16.0, 0.34830859375], [16.0, 0.34830859375], [16.0, 0.34830859375], [16.0, 0.34830859375], [16.0, 0.34830859375], [16.0, 0.34830859375], [16.0, 0.34830859375], [16.0, 0.34830859375], [16.0, 0.34830859375], [16.0, 0.34830859375], [16.0, 0.34830859375], [16.0, 0.34830859375], [16.0, 0.34830859375], [16.0, 0.34830859375], [16.0, 0.34830859375], [16.0, 0.34830859375], [16.0, 0.34830859375], [16.0, 0.34830859375], [16.0, 0.34830859375], [16.0, 0.34830859375], [16.0, 0.34830859375], [16.0, 0.34830859375], [16.0, 0.34830859375], [16.0, 0.34830859375], [16.0, 0.34830859375], [16.0, 0.34830859375], [16.0, 0.34830859375], [16.0, 0.34830859375], [16.0, 0.34830859375], [16.0, 0.34830859375], [16.0, 0.34830859375], [16.0, 0.34830859375], [16.0, 0.34830859375], [16.0, 0.34830859375], [16.0, 0.34830859375], [16.0, 0.34830859375], [16.0, 0.34830859375], [16.0, 0.34830859375], [16.0, 0.34830859375], [16.0, 0.34830859375], [16.0, 0.34830859375], [16.0, 0.34830859375], [16.0, 0.34830859375], [16.0, 0.34830859375], [16.0, 0.34830859375], [16.0, 0.34830859375], [16.0, 0.34830859375], [16.0, 0.34830859375], [16.0, 0.34830859375], [16.0, 0.34830859375], [16.0, 0.34830859375], [16.0, 0.34830859375], [16.0, 0.34830859375], [16.0, 0.34830859375], [16.0, 0.34830859375], [16.0, 0.34830859375], [16.0, 0.34830859375], [16.0, 0.34830859375], [16.0, 0.34830859375], [16.0, 0.34830859375], [16.0, 0.34830859375], [16.0, 0.34830859375], [16.0, 0.34830859375], [16.0, 0.34830859375], [16.0, 0.34830859375], [16.0, 0.34830859375], [16.0, 0.34830859375], [16.0, 0.34830859375], [16.0, 0.34830859375], [16.0, 0.34830859375], [16.0, 0.34830859375], [16.0, 0.34830859375], [16.0, 0.34830859375], [16.0, 0.34830859375], [16.0, 0.34830859375], [16.0, 0.34830859375], [16.0, 0.34830859375], [16.0, 0.34830859375], [16.0, 0.34830859375], [16.0, 0.34830859375], [16.0, 0.34830859375], [16.0, 0.34830859375], [16.0, 0.34830859375], [16.0, 0.34830859375], [16.0, 0.34830859375], [16.0, 0.34830859375], [16.0, 0.34830859375], [16.0, 0.34830859375], [16.0, 0.34830859375], [16.0, 0.34830859375], [16.0, 0.34830859375], [16.0, 0.34830859375], [16.0, 0.34830859375], [16.0, 0.34830859375], [16.0, 0.34830859375], [16.0, 0.34830859375], [16.0, 0.34830859375], [16.0, 0.34830859375], [16.0, 0.34830859375], [16.0, 0.34830859375], [16.0, 0.34830859375], [16.0, 0.34830859375], [16.0, 0.34830859375], [16.0, 0.34830859375], [16.0, 0.34830859375], [16.0, 0.34830859375], [16.0, 0.34830859375], [16.0, 0.34830859375], [16.0, 0.34830859375], [16.0, 0.34830859375], [16.0, 0.34830859375], [16.0, 0.34830859375], [16.0, 0.34830859375], [16.0, 0.34830859375], [16.0, 0.34830859375], [16.0, 0.34830859375], [16.0, 0.34830859375], [16.0, 0.34830859375], [16.0, 0.34830859375], [16.0, 0.34830859375], [16.0, 0.34830859375], [16.0, 0.34830859375], [16.0, 0.34830859375], [16.0, 0.34830859375], [16.0, 0.34830859375], [16.0, 0.34830859375], [16.0, 0.34830859375], [16.0, 0.34830859375], [16.0, 0.34830859375], [16.0, 0.34830859375], [16.0, 0.34830859375], [16.0, 0.34830859375], [16.0, 0.34830859375], [16.0, 0.34830859375], [16.0, 0.34830859375], [16.0, 0.34830859375], [16.0, 0.34830859375], [16.0, 0.34830859375], [16.0, 0.34830859375], [16.0, 0.34830859375], [16.0, 0.34830859375], [16.0, 0.34830859375], [16.0, 0.34830859375], [16.0, 0.34830859375], [16.0, 0.34830859375], [16.0, 0.34830859375], [16.0, 0.34830859375], [16.0, 0.34830859375], [16.0, 0.34830859375], [16.0, 0.34830859375], [16.0, 0.34830859375], [16.0, 0.34830859375], [16.0, 0.34830859375], [16.0, 0.34830859375], [16.0, 0.34830859375], [16.0, 0.34830859375], [16.0, 0.34830859375], [16.0, 0.34830859375], [16.0, 0.34830859375], [16.0, 0.34830859375], [16.0, 0.34830859375], [16.0, 0.34830859375], [16.0, 0.34830859375], [16.0, 0.34830859375], [16.0, 0.34830859375], [16.0, 0.34830859375], [16.0, 0.34830859375], [16.0, 0.34830859375], [16.0, 0.34830859375], [16.0, 0.34830859375], [16.0, 0.34830859375], [16.0, 0.34830859375], [16.0, 0.34830859375], [16.0, 0.34830859375], [16.0, 0.34830859375], [16.0, 0.34830859375], [16.0, 0.34830859375], [16.0, 0.34830859375], [16.0, 0.34830859375], [16.0, 0.34830859375], [16.0, 0.34830859375], [16.0, 0.34830859375], [16.0, 0.34830859375], [16.0, 0.34830859375], [16.0, 0.34830859375], [16.0, 0.34830859375], [16.0, 0.34830859375], [16.0, 0.34830859375], [16.0, 0.34830859375], [16.0, 0.34830859375], [16.0, 0.34830859375], [16.0, 0.34830859375], [16.0, 0.34830859375], [16.0, 0.34830859375], [16.0, 0.34830859375], [16.0, 0.34830859375], [16.0, 0.34830859375], [16.0, 0.34830859375], [16.0, 0.34830859375], [16.0, 0.34830859375], [16.0, 0.34830859375], [16.0, 0.34830859375], [16.0, 0.34830859375], [16.0, 0.34830859375], [16.0, 0.34830859375], [16.0, 0.34830859375], [16.0, 0.34830859375], [16.0, 0.34830859375], [16.0, 0.34830859375], [16.0, 0.34830859375], [16.0, 0.34830859375], [16.0, 0.34830859375], [16.0, 0.34830859375], [16.0, 0.34830859375], [16.0, 0.34830859375], [16.0, 0.34830859375], [16.0, 0.34830859375], [16.0, 0.34830859375], [16.0, 0.34830859375], [16.0, 0.34830859375], [16.0, 0.34830859375], [16.0, 0.34830859375], [16.0, 0.34830859375], [16.0, 0.34830859375], [16.0, 0.34830859375], [16.0, 0.34830859375], [16.0, 0.34830859375], [16.0, 0.34830859375], [16.0, 0.34830859375], [16.0, 0.34830859375], [16.0, 0.34830859375], [16.0, 0.34830859375], [16.0, 0.34830859375], [16.0, 0.34830859375], [16.0, 0.34830859375], [16.0, 0.34830859375], [16.0, 0.34830859375], [16.0, 0.34830859375], [16.0, 0.34830859375], [16.0, 0.34830859375], [16.0, 0.34830859375], [16.0, 0.34830859375], [16.0, 0.34830859375], [16.0, 0.34830859375], [16.0, 0.34830859375], [16.0, 0.34830859375], [16.0, 0.34830859375], [16.0, 0.34830859375], [16.0, 0.34830859375], [16.0, 0.34830859375], [16.0, 0.34830859375], [16.0, 0.34830859375], [16.0, 0.34830859375], [16.0, 0.34830859375], [16.0, 0.34830859375], [16.0, 0.34830859375], [16.0, 0.34830859375], [16.0, 0.34830859375], [16.0, 0.34830859375], [16.0, 0.34830859375], [16.0, 0.34830859375], [16.0, 0.34830859375], [16.0, 0.34830859375], [16.0, 0.34830859375], [16.0, 0.34830859375], [16.0, 0.34830859375], [16.0, 0.34830859375], [16.0, 0.34830859375], [16.0, 0.34830859375], [16.0, 0.34830859375], [16.0, 0.34830859375], [16.0, 0.34830859375], [16.0, 0.34830859375], [16.0, 0.34830859375], [16.0, 0.34830859375], [16.0, 0.34830859375], [16.0, 0.34830859375], [16.0, 0.34830859375], [16.0, 0.34830859375], [16.0, 0.34830859375], [16.0, 0.34830859375], [16.0, 0.34830859375], [16.0, 0.34830859375], [16.0, 0.34830859375], [16.0, 0.34830859375], [16.0, 0.34830859375], [16.0, 0.34830859375], [16.0, 0.34830859375], [16.0, 0.34830859375], [16.0, 0.34830859375], [16.0, 0.34830859375], [16.0, 0.34830859375], [16.0, 0.34830859375], [16.0, 0.34830859375], [16.0, 0.34830859375], [16.0, 0.34830859375], [16.0, 0.34830859375], [16.0, 0.34830859375], [16.0, 0.34830859375], [16.0, 0.34830859375], [16.0, 0.34830859375], [16.0, 0.34830859375], [16.0, 0.34830859375], [16.0, 0.34830859375], [16.0, 0.34830859375], [16.0, 0.34830859375], [16.0, 0.34830859375], [16.0, 0.34830859375], [16.0, 0.34830859375], [16.0, 0.34830859375], [16.0, 0.34830859375], [16.0, 0.34830859375], [16.0, 0.34830859375], [16.0, 0.34830859375], [16.0, 0.34830859375], [16.0, 0.34830859375], [16.0, 0.34830859375], [16.0, 0.34830859375], [16.0, 0.34830859375], [16.0, 0.34830859375], [16.0, 0.34830859375], [16.0, 0.34830859375], [16.0, 0.34830859375], [16.0, 0.34830859375], [16.0, 0.34830859375], [16.0, 0.34830859375], [16.0, 0.34830859375], [16.0, 0.34830859375], [16.0, 0.34830859375], [16.0, 0.34830859375], [16.0, 0.34830859375], [16.0, 0.34830859375], [16.0, 0.34830859375], [16.0, 0.34830859375], [16.0, 0.34830859375], [16.0, 0.34830859375], [16.0, 0.34830859375], [16.0, 0.34830859375], [16.0, 0.34830859375], [16.0, 0.34830859375], [16.0, 0.34830859375], [16.0, 0.34830859375], [16.0, 0.34830859375], [16.0, 0.34830859375], [16.0, 0.34830859375], [16.0, 0.34830859375], [16.0, 0.34830859375], [16.0, 0.34830859375], [16.0, 0.34830859375], [16.0, 0.34830859375], [16.0, 0.34830859375], [16.0, 0.34830859375], [16.0, 0.34830859375], [16.0, 0.34830859375], [16.0, 0.34830859375], [16.0, 0.34830859375], [16.0, 0.34830859375], [16.0, 0.34830859375], [16.0, 0.34830859375], [16.0, 0.34830859375], [16.0, 0.34830859375], [16.0, 0.34830859375], [16.0, 0.34830859375], [16.0, 0.34830859375], [16.0, 0.34830859375], [16.0, 0.34830859375], [16.0, 0.34830859375], [16.0, 0.34830859375], [16.0, 0.34830859375], [16.0, 0.34830859375], [16.0, 0.34830859375], [16.0, 0.34830859375], [16.0, 0.34830859375], [16.0, 0.34830859375], [16.0, 0.34830859375], [16.0, 0.34830859375], [16.0, 0.34830859375], [16.0, 0.34830859375], [16.0, 0.34830859375], [16.0, 0.34830859375], [16.0, 0.34830859375], [16.0, 0.34830859375], [16.0, 0.34830859375], [16.0, 0.34830859375], [16.0, 0.34830859375], [16.0, 0.34830859375], [16.0, 0.34830859375], [16.0, 0.34830859375], [16.0, 0.34830859375], [16.0, 0.34830859375], [16.0, 0.34830859375], [16.0, 0.34830859375], [16.0, 0.34830859375], [16.0, 0.34830859375], [16.0, 0.34830859375], [16.0, 0.34830859375], [16.0, 0.34830859375], [16.0, 0.34830859375], [16.0, 0.34830859375], [16.0, 0.34830859375], [16.0, 0.34830859375], [16.0, 0.34830859375], [16.0, 0.34830859375], [16.0, 0.34830859375], [16.0, 0.34830859375], [16.0, 0.34830859375], [16.0, 0.34830859375], [16.0, 0.34830859375], [16.0, 0.34830859375], [16.0, 0.34830859375], [16.0, 0.34830859375], [16.0, 0.34830859375], [16.0, 0.34830859375], [16.0, 0.34830859375], [16.0, 0.34830859375], [16.0, 0.34830859375], [16.0, 0.34830859375], [16.0, 0.34830859375], [16.0, 0.34830859375], [16.0, 0.34830859375], [16.0, 0.34830859375], [16.0, 0.34830859375], [16.0, 0.34830859375], [16.0, 0.34830859375], [16.0, 0.34830859375], [16.0, 0.34830859375], [16.0, 0.34830859375], [16.0, 0.34830859375], [16.0, 0.34830859375], [16.0, 0.34830859375], [16.0, 0.34830859375], [16.0, 0.34830859375], [16.0, 0.34830859375], [16.0, 0.34830859375], [16.0, 0.34830859375], [16.0, 0.34830859375], [16.0, 0.34830859375], [16.0, 0.34830859375], [16.0, 0.34830859375], [16.0, 0.34830859375], [16.0, 0.34830859375], [16.0, 0.34830859375], [16.0, 0.34830859375], [16.0, 0.34830859375], [16.0, 0.34830859375], [16.0, 0.34830859375], [16.0, 0.34830859375], [16.0, 0.34830859375], [16.0, 0.34830859375], [16.0, 0.34830859375], [16.0, 0.34830859375], [16.0, 0.34830859375], [16.0, 0.34830859375], [16.0, 0.34830859375], [16.0, 0.34830859375], [16.0, 0.34830859375], [16.0, 0.34830859375], [16.0, 0.34830859375], [16.0, 0.34830859375], [16.0, 0.34830859375], [16.0, 0.34830859375], [16.0, 0.34830859375], [16.0, 0.34830859375], [16.0, 0.34830859375], [16.0, 0.34830859375], [16.0, 0.34830859375], [16.0, 0.34830859375], [16.0, 0.34830859375], [16.0, 0.34830859375], [16.0, 0.34830859375], [16.0, 0.34830859375], [16.0, 0.34830859375], [16.0, 0.34830859375], [16.0, 0.34830859375], [16.0, 0.34830859375], [16.0, 0.34830859375], [16.0, 0.34830859375], [16.0, 0.34830859375], [16.0, 0.34830859375], [16.0, 0.34830859375], [16.0, 0.34830859375], [16.0, 0.34830859375], [16.0, 0.34830859375], [16.0, 0.34830859375], [16.0, 0.34830859375], [16.0, 0.34830859375], [16.0, 0.34830859375], [16.0, 0.34830859375], [16.0, 0.34830859375], [16.0, 0.34830859375], [16.0, 0.34830859375], [16.0, 0.34830859375], [16.0, 0.34830859375], [16.0, 0.34830859375], [16.0, 0.34830859375], [16.0, 0.34830859375], [16.0, 0.34830859375], [16.0, 0.34830859375], [16.0, 0.34830859375], [16.0, 0.34830859375], [16.0, 0.34830859375], [16.0, 0.34830859375], [16.0, 0.34830859375], [16.0, 0.34830859375], [16.0, 0.34830859375], [16.0, 0.34830859375], [16.0, 0.34830859375], [16.0, 0.34830859375], [16.0, 0.34830859375], [16.0, 0.34830859375], [16.0, 0.34830859375], [16.0, 0.34830859375], [16.0, 0.34830859375], [16.0, 0.34830859375], [16.0, 0.34830859375], [16.0, 0.34830859375], [16.0, 0.34830859375], [16.0, 0.34830859375], [16.0, 0.34830859375], [16.0, 0.34830859375], [16.0, 0.34830859375], [16.0, 0.34830859375], [16.0, 0.34830859375], [16.0, 0.34830859375], [16.0, 0.34830859375], [16.0, 0.34830859375], [16.0, 0.34830859375], [16.0, 0.34830859375], [16.0, 0.34830859375], [16.0, 0.34830859375], [16.0, 0.34830859375], [16.0, 0.34830859375], [16.0, 0.34830859375], [16.0, 0.34830859375], [16.0, 0.34830859375], [16.0, 0.34830859375], [16.0, 0.34830859375], [16.0, 0.34830859375], [16.0, 0.34830859375], [16.0, 0.34830859375], [16.0, 0.34830859375], [16.0, 0.34830859375], [16.0, 0.34830859375], [16.0, 0.34830859375], [16.0, 0.34830859375], [16.0, 0.34830859375], [16.0, 0.34830859375], [16.0, 0.34830859375], [16.0, 0.34830859375], [16.0, 0.34830859375], [16.0, 0.34830859375], [16.0, 0.34830859375], [16.0, 0.34830859375], [16.0, 0.34830859375], [16.0, 0.34830859375], [16.0, 0.34830859375], [16.0, 0.34830859375], [16.0, 0.34830859375], [16.0, 0.34830859375], [16.0, 0.34830859375], [16.0, 0.34830859375], [16.0, 0.34830859375], [16.0, 0.34830859375], [16.0, 0.34830859375], [16.0, 0.34830859375], [16.0, 0.34830859375], [16.0, 0.34830859375], [16.0, 0.34830859375], [16.0, 0.34830859375], [16.0, 0.34830859375], [16.0, 0.34830859375], [16.0, 0.34830859375], [16.0, 0.34830859375], [16.0, 0.34830859375], [16.0, 0.34830859375], [16.0, 0.34830859375], [16.0, 0.34830859375], [16.0, 0.34830859375], [16.0, 0.34830859375], [16.0, 0.34830859375], [16.0, 0.34830859375], [16.0, 0.34830859375], [16.0, 0.34830859375], [16.0, 0.34830859375], [16.0, 0.34830859375], [16.0, 0.34830859375], [16.0, 0.34830859375], [16.0, 0.34830859375], [16.0, 0.34830859375], [16.0, 0.34830859375], [16.0, 0.34830859375], [16.0, 0.34830859375], [16.0, 0.34830859375], [16.0, 0.34830859375], [16.0, 0.34830859375], [16.0, 0.34830859375], [16.0, 0.34830859375], [16.0, 0.34830859375], [16.0, 0.34830859375], [16.0, 0.34830859375], [16.0, 0.34830859375], [16.0, 0.34830859375], [16.0, 0.34830859375], [16.0, 0.34830859375], [16.0, 0.34830859375], [16.0, 0.34830859375], [16.0, 0.34830859375], [16.0, 0.34830859375], [16.0, 0.34830859375], [16.0, 0.34830859375], [16.0, 0.34830859375], [16.0, 0.34830859375], [16.0, 0.34830859375], [16.0, 0.34830859375], [16.0, 0.34830859375], [16.0, 0.34830859375], [16.0, 0.34830859375], [16.0, 0.34830859375], [16.0, 0.34830859375], [16.0, 0.34830859375], [16.0, 0.34830859375], [16.0, 0.34830859375], [16.0, 0.34830859375], [16.0, 0.34830859375], [16.0, 0.34830859375], [16.0, 0.34830859375], [16.0, 0.34830859375], [16.0, 0.34830859375], [16.0, 0.34830859375], [16.0, 0.34830859375], [16.0, 0.34830859375], [16.0, 0.34830859375], [16.0, 0.34830859375], [16.0, 0.34830859375], [16.0, 0.34830859375], [16.0, 0.34830859375], [16.0, 0.34830859375], [16.0, 0.34830859375], [16.0, 0.34830859375], [16.0, 0.34830859375], [16.0, 0.34830859375], [16.0, 0.34830859375], [16.0, 0.34830859375], [16.0, 0.34830859375], [16.0, 0.34830859375], [16.0, 0.34830859375], [16.0, 0.34830859375], [16.0, 0.34830859375], [16.0, 0.34830859375], [16.0, 0.34830859375], [16.0, 0.34830859375], [16.0, 0.34830859375], [16.0, 0.34830859375], [16.0, 0.34830859375], [16.0, 0.34830859375], [16.0, 0.34830859375], [16.0, 0.34830859375], [16.0, 0.34830859375], [16.0, 0.34830859375], [16.0, 0.34830859375], [16.0, 0.34830859375], [16.0, 0.34830859375], [16.0, 0.34830859375], [16.0, 0.34830859375], [16.0, 0.34830859375], [16.0, 0.34830859375], [16.0, 0.34830859375], [16.0, 0.34830859375], [16.0, 0.34830859375], [16.0, 0.34830859375], [16.0, 0.34830859375], [16.0, 0.34830859375], [16.0, 0.34830859375], [16.0, 0.34830859375], [16.0, 0.34830859375], [16.0, 0.34830859375], [16.0, 0.34830859375], [16.0, 0.34830859375], [16.0, 0.34830859375], [16.0, 0.34830859375], [16.0, 0.34830859375], [16.0, 0.34830859375], [16.0, 0.34830859375], [16.0, 0.34830859375], [16.0, 0.34830859375], [16.0, 0.34830859375], [16.0, 0.34830859375], [16.0, 0.34830859375], [16.0, 0.34830859375], [16.0, 0.34830859375], [16.0, 0.34830859375], [16.0, 0.34830859375], [16.0, 0.34830859375], [16.0, 0.34830859375], [16.0, 0.34830859375], [16.0, 0.34830859375], [16.0, 0.34830859375], [16.0, 0.34830859375], [16.0, 0.34830859375], [16.0, 0.34830859375], [16.0, 0.34830859375], [16.0, 0.34830859375], [16.0, 0.34830859375], [16.0, 0.34830859375], [16.0, 0.34830859375], [16.0, 0.34830859375], [16.0, 0.34830859375], [16.0, 0.34830859375], [16.0, 0.34830859375], [16.0, 0.34830859375], [16.0, 0.34830859375], [16.0, 0.34830859375], [16.0, 0.34830859375], [16.0, 0.34830859375], [16.0, 0.34830859375], [16.0, 0.34830859375], [16.0, 0.34830859375], [16.0, 0.34830859375], [16.0, 0.34830859375], [16.0, 0.34830859375], [16.0, 0.34830859375], [16.0, 0.34830859375], [16.0, 0.34830859375], [16.0, 0.34830859375], [16.0, 0.34830859375], [16.0, 0.34830859375], [16.0, 0.34830859375], [16.0, 0.34830859375], [16.0, 0.34830859375], [16.0, 0.34830859375], [16.0, 0.34830859375], [16.0, 0.34830859375], [16.0, 0.34830859375], [16.0, 0.34830859375], [16.0, 0.34830859375], [16.0, 0.34830859375], [16.0, 0.34830859375], [16.0, 0.34830859375], [16.0, 0.34830859375], [16.0, 0.34830859375], [16.0, 0.34830859375], [16.0, 0.34830859375], [16.0, 0.34830859375], [16.0, 0.34830859375], [16.0, 0.34830859375], [16.0, 0.34830859375], [16.0, 0.34830859375], [16.0, 0.34830859375], [16.0, 0.34830859375], [16.0, 0.34830859375], [16.0, 0.34830859375], [16.0, 0.34830859375], [16.0, 0.34830859375], [16.0, 0.34830859375], [16.0, 0.34830859375], [16.0, 0.34830859375], [16.0, 0.34830859375], [16.0, 0.34830859375], [16.0, 0.34830859375], [16.0, 0.34830859375], [16.0, 0.34830859375], [16.0, 0.34830859375], [16.0, 0.34830859375], [16.0, 0.34830859375], [16.0, 0.34830859375], [16.0, 0.34830859375], [16.0, 0.34830859375], [16.0, 0.34830859375], [16.0, 0.34830859375], [16.0, 0.34830859375], [16.0, 0.34830859375], [16.0, 0.34830859375], [16.0, 0.34830859375], [16.0, 0.34830859375], [16.0, 0.34830859375], [16.0, 0.34830859375], [16.0, 0.34830859375], [16.0, 0.34830859375], [16.0, 0.34830859375], [16.0, 0.34830859375], [16.0, 0.34830859375], [16.0, 0.34830859375], [16.0, 0.34830859375], [16.0, 0.34830859375], [16.0, 0.34830859375], [16.0, 0.34830859375], [16.0, 0.34830859375], [16.0, 0.34830859375], [16.0, 0.34830859375], [16.0, 0.34830859375], [16.0, 0.34830859375], [16.0, 0.34830859375], [16.0, 0.34830859375], [16.0, 0.34830859375], [16.0, 0.34830859375], [16.0, 0.34830859375], [16.0, 0.34830859375], [16.0, 0.34830859375], [16.0, 0.34830859375], [16.0, 0.34830859375], [16.0, 0.34830859375], [16.0, 0.34830859375], [16.0, 0.34830859375], [16.0, 0.34830859375], [16.0, 0.34830859375], [16.0, 0.34830859375], [16.0, 0.34830859375], [16.0, 0.34830859375], [16.0, 0.34830859375], [16.0, 0.34830859375], [16.0, 0.34830859375], [16.0, 0.34830859375], [16.0, 0.34830859375], [16.0, 0.34830859375], [16.0, 0.34830859375], [16.0, 0.34830859375], [16.0, 0.34830859375], [16.0, 0.34830859375], [16.0, 0.34830859375], [16.0, 0.34830859375], [16.0, 0.34830859375], [16.0, 0.34830859375], [16.0, 0.34830859375], [16.0, 0.34830859375], [16.0, 0.34830859375], [16.0, 0.34830859375], [16.0, 0.34830859375], [16.0, 0.34830859375], [16.0, 0.34830859375], [16.0, 0.34830859375], [16.0, 0.34830859375], [16.0, 0.34830859375], [16.0, 0.34830859375], [16.0, 0.34830859375], [16.0, 0.34830859375], [16.0, 0.34830859375], [16.0, 0.34830859375], [16.0, 0.34830859375], [16.0, 0.34830859375], [16.0, 0.34830859375], [16.0, 0.34830859375], [16.0, 0.34830859375], [16.0, 0.34830859375], [16.0, 0.34830859375], [16.0, 0.34830859375], [16.0, 0.34830859375], [16.0, 0.34830859375], [16.0, 0.34830859375], [16.0, 0.34830859375], [16.0, 0.34830859375], [16.0, 0.34830859375], [16.0, 0.34830859375], [16.0, 0.34830859375], [16.0, 0.34830859375], [16.0, 0.34830859375], [16.0, 0.34830859375], [16.0, 0.34830859375], [16.0, 0.34830859375], [16.0, 0.34830859375], [16.0, 0.34830859375], [16.0, 0.34830859375], [16.0, 0.34830859375], [16.0, 0.34830859375], [16.0, 0.34830859375], [16.0, 0.34830859375], [16.0, 0.34830859375], [16.0, 0.34830859375], [16.0, 0.34830859375], [16.0, 0.34830859375], [16.0, 0.34830859375], [16.0, 0.34830859375], [16.0, 0.34830859375], [16.0, 0.34830859375], [16.0, 0.34830859375], [16.0, 0.34830859375], [16.0, 0.34830859375], [16.0, 0.34830859375], [16.0, 0.34830859375], [16.0, 0.34830859375], [16.0, 0.34830859375], [16.0, 0.34830859375], [16.0, 0.34830859375], [16.0, 0.34830859375], [16.0, 0.34830859375], [16.0, 0.34830859375], [16.0, 0.34830859375], [16.0, 0.34830859375], [16.0, 0.34830859375], [16.0, 0.34830859375], [16.0, 0.34830859375], [16.0, 0.34830859375], [16.0, 0.34830859375], [16.0, 0.34830859375], [16.0, 0.34830859375], [16.0, 0.34830859375], [16.0, 0.34830859375], [16.0, 0.34830859375], [16.0, 0.34830859375], [16.0, 0.34830859375], [16.0, 0.34830859375], [16.0, 0.34830859375], [16.0, 0.34830859375], [16.0, 0.34830859375], [16.0, 0.34830859375], [16.0, 0.34830859375], [16.0, 0.34830859375], [16.0, 0.34830859375], [16.0, 0.34830859375], [16.0, 0.34830859375], [16.0, 0.34830859375], [16.0, 0.34830859375], [16.0, 0.34830859375], [16.0, 0.34830859375], [16.0, 0.34830859375], [16.0, 0.34830859375], [16.0, 0.34830859375], [16.0, 0.34830859375], [16.0, 0.34830859375], [16.0, 0.34830859375], [16.0, 0.34830859375], [16.0, 0.34830859375], [16.0, 0.34830859375], [16.0, 0.34830859375], [16.0, 0.34830859375], [16.0, 0.34830859375], [16.0, 0.34830859375], [16.0, 0.34830859375], [16.0, 0.34830859375], [16.0, 0.34830859375], [16.0, 0.34830859375], [16.0, 0.34830859375], [16.0, 0.34830859375], [16.0, 0.34830859375], [16.0, 0.34830859375], [16.0, 0.34830859375], [16.0, 0.34830859375], [16.0, 0.34830859375], [16.0, 0.34830859375], [16.0, 0.34830859375], [16.0, 0.34830859375], [16.0, 0.34830859375], [16.0, 0.34830859375], [16.0, 0.34830859375], [16.0, 0.34830859375], [16.0, 0.34830859375], [16.0, 0.34830859375], [16.0, 0.34830859375], [16.0, 0.34830859375], [16.0, 0.34830859375], [16.0, 0.34830859375], [16.0, 0.34830859375], [16.0, 0.34830859375], [16.0, 0.34830859375], [16.0, 0.34830859375], [16.0, 0.34830859375], [16.0, 0.34830859375], [16.0, 0.34830859375], [16.0, 0.34830859375], [16.0, 0.34830859375], [16.0, 0.34830859375], [16.0, 0.34830859375], [16.0, 0.34830859375], [16.0, 0.34830859375], [16.0, 0.34830859375], [16.0, 0.34830859375], [16.0, 0.34830859375], [16.0, 0.34830859375], [16.0, 0.34830859375], [16.0, 0.34830859375], [16.0, 0.34830859375], [16.0, 0.34830859375], [16.0, 0.34830859375], [16.0, 0.34830859375], [16.0, 0.34830859375], [16.0, 0.34830859375], [16.0, 0.34830859375], [16.0, 0.34830859375], [16.0, 0.34830859375], [16.0, 0.34830859375], [16.0, 0.34830859375], [16.0, 0.34830859375], [16.0, 0.34830859375], [16.0, 0.34830859375], [16.0, 0.34830859375], [16.0, 0.34830859375], [16.0, 0.34830859375], [16.0, 0.34830859375], [16.0, 0.34830859375], [16.0, 0.34830859375], [16.0, 0.34830859375], [16.0, 0.34830859375], [16.0, 0.34830859375], [16.0, 0.34830859375], [16.0, 0.34830859375], [16.0, 0.34830859375], [16.0, 0.34830859375], [16.0, 0.34830859375], [16.0, 0.34830859375], [16.0, 0.34830859375], [16.0, 0.34830859375], [16.0, 0.34830859375], [16.0, 0.34830859375], [16.0, 0.34830859375], [16.0, 0.34830859375], [16.0, 0.34830859375], [16.0, 0.34830859375], [16.0, 0.34830859375], [16.0, 0.34830859375], [16.0, 0.34830859375], [16.0, 0.34830859375], [16.0, 0.34830859375], [16.0, 0.34830859375], [16.0, 0.34830859375], [16.0, 0.34830859375], [16.0, 0.34830859375], [16.0, 0.34830859375], [16.0, 0.34830859375], [16.0, 0.34830859375], [16.0, 0.34830859375], [16.0, 0.34830859375], [16.0, 0.34830859375], [16.0, 0.34830859375], [16.0, 0.34830859375], [16.0, 0.34830859375], [16.0, 0.34830859375], [16.0, 0.34830859375], [16.0, 0.34830859375], [16.0, 0.34830859375], [16.0, 0.34830859375], [16.0, 0.34830859375], [16.0, 0.34830859375], [16.0, 0.34830859375], [16.0, 0.34830859375], [16.0, 0.34830859375], [16.0, 0.34830859375], [16.0, 0.34830859375], [16.0, 0.34830859375], [16.0, 0.34830859375], [16.0, 0.34830859375], [16.0, 0.34830859375], [16.0, 0.34830859375], [16.0, 0.34830859375], [16.0, 0.34830859375], [16.0, 0.34830859375], [16.0, 0.34830859375], [16.0, 0.34830859375], [16.0, 0.34830859375], [16.0, 0.34830859375], [16.0, 0.34830859375], [16.0, 0.34830859375], [16.0, 0.34830859375], [16.0, 0.34830859375], [16.0, 0.34830859375], [16.0, 0.34830859375], [16.0, 0.34830859375], [16.0, 0.34830859375], [16.0, 0.34830859375], [16.0, 0.34830859375], [16.0, 0.34830859375], [16.0, 0.34830859375], [16.0, 0.34830859375], [16.0, 0.34830859375], [16.0, 0.34830859375], [16.0, 0.34830859375], [16.0, 0.34830859375], [16.0, 0.34830859375], [16.0, 0.34830859375], [16.0, 0.34830859375], [16.0, 0.34830859375], [16.0, 0.34830859375], [16.0, 0.34830859375], [16.0, 0.34830859375], [16.0, 0.34830859375], [16.0, 0.34830859375], [16.0, 0.34830859375], [16.0, 0.34830859375], [16.0, 0.34830859375], [16.0, 0.34830859375], [16.0, 0.34830859375], [16.0, 0.34830859375], [16.0, 0.34830859375], [16.0, 0.34830859375], [16.0, 0.34830859375], [16.0, 0.34830859375], [16.0, 0.34830859375], [16.0, 0.34830859375], [16.0, 0.34830859375], [16.0, 0.34830859375], [16.0, 0.34830859375], [16.0, 0.34830859375], [16.0, 0.34830859375], [16.0, 0.34830859375], [16.0, 0.34830859375], [16.0, 0.34830859375], [16.0, 0.34830859375], [16.0, 0.34830859375], [16.0, 0.34830859375], [16.0, 0.34830859375], [16.0, 0.34830859375], [16.0, 0.34830859375], [16.0, 0.34830859375], [16.0, 0.34830859375], [16.0, 0.34830859375], [16.0, 0.34830859375], [16.0, 0.34830859375], [16.0, 0.34830859375], [16.0, 0.34830859375], [16.0, 0.34830859375], [16.0, 0.34830859375], [16.0, 0.34830859375], [16.0, 0.34830859375], [16.0, 0.34830859375], [16.0, 0.34830859375], [16.0, 0.34830859375], [16.0, 0.34830859375], [16.0, 0.34830859375], [16.0, 0.34830859375], [16.0, 0.34830859375], [16.0, 0.34830859375], [16.0, 0.34830859375], [16.0, 0.34830859375], [16.0, 0.34830859375], [16.0, 0.34830859375], [16.0, 0.34830859375], [16.0, 0.34830859375], [16.0, 0.34830859375], [16.0, 0.34830859375], [16.0, 0.34830859375], [16.0, 0.34830859375], [16.0, 0.34830859375], [16.0, 0.34830859375], [16.0, 0.34830859375], [16.0, 0.34830859375], [16.0, 0.34830859375], [16.0, 0.34830859375], [16.0, 0.34830859375], [16.0, 0.34830859375], [16.0, 0.34830859375], [16.0, 0.34830859375], [16.0, 0.34830859375], [16.0, 0.34830859375], [16.0, 0.34830859375], [16.0, 0.34830859375], [16.0, 0.34830859375], [16.0, 0.34830859375], [16.0, 0.34830859375], [16.0, 0.34830859375], [16.0, 0.34830859375], [16.0, 0.34830859375], [16.0, 0.34830859375], [16.0, 0.34830859375], [16.0, 0.34830859375], [16.0, 0.34830859375], [16.0, 0.34830859375], [16.0, 0.34830859375], [16.0, 0.34830859375], [16.0, 0.34830859375], [16.0, 0.34830859375], [16.0, 0.34830859375], [16.0, 0.34830859375], [16.0, 0.34830859375], [16.0, 0.34830859375], [16.0, 0.34830859375], [16.0, 0.34830859375], [16.0, 0.34830859375], [16.0, 0.34830859375], [16.0, 0.34830859375], [16.0, 0.34830859375], [16.0, 0.34830859375], [16.0, 0.34830859375], [16.0, 0.34830859375], [16.0, 0.34830859375], [16.0, 0.34830859375], [16.0, 0.34830859375], [16.0, 0.34830859375], [16.0, 0.34830859375], [16.0, 0.34830859375], [16.0, 0.34830859375], [16.0, 0.34830859375], [16.0, 0.34830859375], [16.0, 0.34830859375], [16.0, 0.34830859375], [16.0, 0.34830859375], [16.0, 0.34830859375], [16.0, 0.34830859375], [16.0, 0.34830859375], [16.0, 0.34830859375], [16.0, 0.34830859375], [16.0, 0.34830859375], [16.0, 0.34830859375], [16.0, 0.34830859375], [16.0, 0.34830859375], [16.0, 0.34830859375], [16.0, 0.34830859375], [16.0, 0.34830859375], [16.0, 0.34830859375], [16.0, 0.34830859375], [16.0, 0.34830859375], [16.0, 0.34830859375], [16.0, 0.34830859375], [16.0, 0.34830859375], [16.0, 0.34830859375], [16.0, 0.34830859375], [16.0, 0.34830859375], [16.0, 0.34830859375], [16.0, 0.34830859375], [16.0, 0.34830859375], [16.0, 0.34830859375], [16.0, 0.34830859375], [16.0, 0.34830859375], [16.0, 0.34830859375], [16.0, 0.34830859375], [16.0, 0.34830859375], [16.0, 0.34830859375], [16.0, 0.34830859375], [16.0, 0.34830859375], [16.0, 0.34830859375], [16.0, 0.34830859375], [16.0, 0.34830859375], [16.0, 0.34830859375], [16.0, 0.34830859375], [16.0, 0.34830859375], [16.0, 0.34830859375], [16.0, 0.34830859375], [16.0, 0.34830859375], [16.0, 0.34830859375], [16.0, 0.34830859375], [16.0, 0.34830859375], [16.0, 0.34830859375], [16.0, 0.34830859375], [16.0, 0.34830859375], [16.0, 0.34830859375], [16.0, 0.34830859375], [16.0, 0.34830859375], [16.0, 0.34830859375], [16.0, 0.34830859375], [16.0, 0.34830859375], [16.0, 0.34830859375], [16.0, 0.34830859375], [16.0, 0.34830859375], [16.0, 0.34830859375], [16.0, 0.34830859375], [16.0, 0.34830859375], [16.0, 0.34830859375], [16.0, 0.34830859375], [16.0, 0.34830859375], [16.0, 0.34830859375], [16.0, 0.34830859375], [16.0, 0.34830859375], [16.0, 0.34830859375], [16.0, 0.34830859375], [16.0, 0.34830859375], [16.0, 0.34830859375], [16.0, 0.34830859375], [16.0, 0.34830859375], [16.0, 0.34830859375], [16.0, 0.34830859375], [16.0, 0.34830859375], [16.0, 0.34830859375], [16.0, 0.34830859375], [16.0, 0.34830859375], [16.0, 0.34830859375], [16.0, 0.34830859375], [16.0, 0.34830859375], [16.0, 0.34830859375], [16.0, 0.34830859375], [16.0, 0.34830859375], [16.0, 0.34830859375], [16.0, 0.34830859375], [16.0, 0.34830859375], [16.0, 0.34830859375], [16.0, 0.34830859375], [16.0, 0.34830859375], [16.0, 0.34830859375], [16.0, 0.34830859375], [16.0, 0.34830859375], [16.0, 0.34830859375], [16.0, 0.34830859375], [16.0, 0.34830859375], [16.0, 0.34830859375], [16.0, 0.34830859375], [16.0, 0.34830859375], [16.0, 0.34830859375], [16.0, 0.34830859375], [16.0, 0.34830859375], [16.0, 0.34830859375], [16.0, 0.34830859375], [16.0, 0.34830859375], [16.0, 0.34830859375], [16.0, 0.34830859375], [16.0, 0.34830859375], [16.0, 0.34830859375], [16.0, 0.34830859375], [16.0, 0.34830859375], [16.0, 0.34830859375], [16.0, 0.34830859375], [16.0, 0.34830859375], [16.0, 0.34830859375], [16.0, 0.34830859375], [16.0, 0.34830859375], [16.0, 0.34830859375], [16.0, 0.34830859375], [16.0, 0.34830859375], [16.0, 0.34830859375], [16.0, 0.34830859375], [16.0, 0.34830859375], [16.0, 0.34830859375], [16.0, 0.34830859375], [16.0, 0.34830859375], [16.0, 0.34830859375], [16.0, 0.34830859375], [16.0, 0.34830859375], [16.0, 0.34830859375], [16.0, 0.34830859375], [16.0, 0.34830859375], [16.0, 0.34830859375], [16.0, 0.34830859375], [16.0, 0.34830859375], [16.0, 0.34830859375], [16.0, 0.34830859375], [16.0, 0.34830859375], [16.0, 0.34830859375], [16.0, 0.34830859375], [16.0, 0.34830859375], [16.0, 0.34830859375], [16.0, 0.34830859375], [16.0, 0.34830859375], [16.0, 0.34830859375], [16.0, 0.34830859375], [16.0, 0.34830859375], [16.0, 0.34830859375], [16.0, 0.34830859375], [16.0, 0.34830859375], [16.0, 0.34830859375], [16.0, 0.34830859375], [16.0, 0.34830859375], [16.0, 0.34830859375], [16.0, 0.34830859375], [16.0, 0.34830859375], [16.0, 0.34830859375], [16.0, 0.34830859375], [16.0, 0.34830859375], [16.0, 0.34830859375], [16.0, 0.34830859375], [16.0, 0.34830859375], [16.0, 0.34830859375], [16.0, 0.34830859375], [16.0, 0.34830859375], [16.0, 0.34830859375], [16.0, 0.34830859375], [16.0, 0.34830859375], [16.0, 0.34830859375], [16.0, 0.34830859375], [16.0, 0.34830859375], [16.0, 0.34830859375], [16.0, 0.34830859375], [16.0, 0.34830859375], [16.0, 0.34830859375], [16.0, 0.34830859375], [16.0, 0.34830859375], [16.0, 0.34830859375], [16.0, 0.34830859375], [16.0, 0.34830859375], [16.0, 0.34830859375], [16.0, 0.34830859375], [16.0, 0.34830859375], [16.0, 0.34830859375], [16.0, 0.34830859375], [16.0, 0.34830859375], [16.0, 0.34830859375], [16.0, 0.34830859375], [16.0, 0.34830859375], [16.0, 0.34830859375], [16.0, 0.34830859375], [16.0, 0.34830859375], [16.0, 0.34830859375], [16.0, 0.34830859375], [16.0, 0.34830859375], [16.0, 0.34830859375], [16.0, 0.34830859375], [16.0, 0.34830859375], [16.0, 0.34830859375], [16.0, 0.34830859375], [16.0, 0.34830859375], [16.0, 0.34830859375], [16.0, 0.34830859375], [16.0, 0.34830859375], [16.0, 0.34830859375], [16.0, 0.34830859375], [16.0, 0.34830859375], [16.0, 0.34830859375], [16.0, 0.34830859375], [16.0, 0.34830859375], [16.0, 0.34830859375], [16.0, 0.34830859375], [16.0, 0.34830859375], [16.0, 0.34830859375], [16.0, 0.34830859375], [16.0, 0.34830859375], [16.0, 0.34830859375], [16.0, 0.34830859375], [16.0, 0.34830859375], [16.0, 0.34830859375], [16.0, 0.34830859375], [16.0, 0.34830859375], [16.0, 0.34830859375], [16.0, 0.34830859375], [16.0, 0.34830859375], [16.0, 0.34830859375], [16.0, 0.34830859375], [16.0, 0.34830859375], [16.0, 0.34830859375], [16.0, 0.34830859375], [16.0, 0.34830859375], [16.0, 0.34830859375], [16.0, 0.34830859375], [16.0, 0.34830859375], [16.0, 0.34830859375], [16.0, 0.34830859375], [16.0, 0.34830859375], [16.0, 0.34830859375], [16.0, 0.34830859375], [16.0, 0.34830859375], [16.0, 0.34830859375], [16.0, 0.34830859375], [16.0, 0.34830859375], [16.0, 0.34830859375], [16.0, 0.34830859375], [16.0, 0.34830859375], [16.0, 0.34830859375], [16.0, 0.34830859375], [16.0, 0.34830859375], [16.0, 0.34830859375], [16.0, 0.34830859375], [16.0, 0.34830859375], [16.0, 0.34830859375], [16.0, 0.34830859375], [16.0, 0.34830859375], [16.0, 0.34830859375], [16.0, 0.34830859375], [16.0, 0.34830859375], [16.0, 0.34830859375], [16.0, 0.34830859375], [16.0, 0.34830859375], [16.0, 0.34830859375], [16.0, 0.34830859375], [16.0, 0.34830859375], [16.0, 0.34830859375], [16.0, 0.34830859375], [16.0, 0.34830859375], [16.0, 0.34830859375], [16.0, 0.34830859375], [16.0, 0.34830859375], [16.0, 0.34830859375], [16.0, 0.34830859375], [16.0, 0.34830859375], [16.0, 0.34830859375], [16.0, 0.34830859375], [16.0, 0.34830859375], [16.0, 0.34830859375], [16.0, 0.34830859375], [16.0, 0.34830859375], [16.0, 0.34830859375], [16.0, 0.34830859375], [16.0, 0.34830859375], [16.0, 0.34830859375], [16.0, 0.34830859375], [16.0, 0.34830859375], [16.0, 0.34830859375], [16.0, 0.34830859375], [16.0, 0.34830859375], [16.0, 0.34830859375], [16.0, 0.34830859375], [16.0, 0.34830859375], [16.0, 0.34830859375], [16.0, 0.34830859375], [16.0, 0.34830859375], [16.0, 0.34830859375], [16.0, 0.34830859375], [16.0, 0.34830859375], [16.0, 0.34830859375], [16.0, 0.34830859375], [16.0, 0.34830859375], [16.0, 0.34830859375], [16.0, 0.34830859375], [16.0, 0.34830859375], [16.0, 0.34830859375], [16.0, 0.34830859375], [16.0, 0.34830859375], [16.0, 0.34830859375], [16.0, 0.34830859375], [16.0, 0.34830859375], [16.0, 0.34830859375], [16.0, 0.34830859375], [16.0, 0.34830859375], [16.0, 0.34830859375], [16.0, 0.34830859375], [16.0, 0.34830859375], [16.0, 0.34830859375], [16.0, 0.34830859375], [16.0, 0.34830859375], [16.0, 0.34830859375], [16.0, 0.34830859375], [16.0, 0.34830859375], [16.0, 0.34830859375], [16.0, 0.34830859375], [16.0, 0.34830859375], [16.0, 0.34830859375], [16.0, 0.34830859375], [16.0, 0.34830859375], [16.0, 0.34830859375], [16.0, 0.34830859375], [16.0, 0.34830859375], [16.0, 0.34830859375], [16.0, 0.34830859375], [16.0, 0.34830859375], [16.0, 0.34830859375], [16.0, 0.34830859375], [16.0, 0.34830859375], [16.0, 0.34830859375], [16.0, 0.34830859375], [16.0, 0.34830859375], [16.0, 0.34830859375], [16.0, 0.34830859375], [16.0, 0.34830859375], [16.0, 0.34830859375], [16.0, 0.34830859375], [16.0, 0.34830859375], [16.0, 0.34830859375], [16.0, 0.34830859375], [16.0, 0.34830859375], [16.0, 0.34830859375], [16.0, 0.34830859375], [16.0, 0.34830859375], [16.0, 0.34830859375], [16.0, 0.34830859375], [16.0, 0.34830859375], [16.0, 0.34830859375], [16.0, 0.34830859375], [16.0, 0.34830859375], [16.0, 0.34830859375], [16.0, 0.34830859375], [16.0, 0.34830859375], [16.0, 0.34830859375], [16.0, 0.34830859375], [16.0, 0.34830859375], [16.0, 0.34830859375], [16.0, 0.34830859375], [16.0, 0.34830859375], [16.0, 0.34830859375], [16.0, 0.34830859375], [16.0, 0.34830859375], [16.0, 0.34830859375], [16.0, 0.34830859375], [16.0, 0.34830859375], [16.0, 0.34830859375], [16.0, 0.34830859375], [16.0, 0.34830859375], [16.0, 0.34830859375], [16.0, 0.34830859375], [16.0, 0.34830859375], [16.0, 0.34830859375], [16.0, 0.34830859375], [16.0, 0.34830859375], [16.0, 0.34830859375], [16.0, 0.34830859375], [16.0, 0.34830859375], [16.0, 0.34830859375], [16.0, 0.34830859375], [16.0, 0.34830859375], [16.0, 0.34830859375], [16.0, 0.34830859375], [16.0, 0.34830859375], [16.0, 0.34830859375], [16.0, 0.34830859375], [16.0, 0.34830859375], [16.0, 0.34830859375], [16.0, 0.34830859375], [16.0, 0.34830859375], [16.0, 0.34830859375], [16.0, 0.34830859375], [16.0, 0.34830859375], [16.0, 0.34830859375], [16.0, 0.34830859375], [16.0, 0.34830859375], [16.0, 0.34830859375], [16.0, 0.34830859375], [16.0, 0.34830859375], [16.0, 0.34830859375], [16.0, 0.34830859375], [16.0, 0.34830859375], [16.0, 0.34830859375], [16.0, 0.34830859375], [16.0, 0.34830859375], [16.0, 0.34830859375], [16.0, 0.34830859375], [16.0, 0.34830859375], [16.0, 0.34830859375], [16.0, 0.34830859375], [16.0, 0.34830859375], [16.0, 0.34830859375], [16.0, 0.34830859375], [16.0, 0.34830859375], [16.0, 0.34830859375], [16.0, 0.34830859375], [16.0, 0.34830859375], [16.0, 0.34830859375], [16.0, 0.34830859375], [16.0, 0.34830859375], [16.0, 0.34830859375], [16.0, 0.34830859375], [16.0, 0.34830859375], [16.0, 0.34830859375], [16.0, 0.34830859375], [16.0, 0.34830859375], [16.0, 0.34830859375], [16.0, 0.34830859375], [16.0, 0.34830859375], [16.0, 0.34830859375], [16.0, 0.34830859375], [16.0, 0.34830859375], [16.0, 0.34830859375], [16.0, 0.34830859375], [16.0, 0.34830859375], [16.0, 0.34830859375], [16.0, 0.34830859375], [16.0, 0.34830859375], [16.0, 0.34830859375], [16.0, 0.34830859375], [16.0, 0.34830859375], [16.0, 0.34830859375], [16.0, 0.34830859375], [16.0, 0.34830859375], [16.0, 0.34830859375], [16.0, 0.34830859375], [16.0, 0.34830859375], [16.0, 0.34830859375], [16.0, 0.34830859375], [16.0, 0.34830859375], [16.0, 0.34830859375], [16.0, 0.34830859375], [16.0, 0.34830859375], [16.0, 0.34830859375], [16.0, 0.34830859375], [16.0, 0.34830859375], [16.0, 0.34830859375], [16.0, 0.34830859375], [16.0, 0.34830859375], [16.0, 0.34830859375], [16.0, 0.34830859375], [16.0, 0.34830859375], [16.0, 0.34830859375], [16.0, 0.34830859375], [16.0, 0.34830859375], [16.0, 0.34830859375], [16.0, 0.34830859375], [16.0, 0.34830859375], [16.0, 0.34830859375], [16.0, 0.34830859375], [16.0, 0.34830859375], [16.0, 0.34830859375], [16.0, 0.34830859375], [16.0, 0.34830859375], [16.0, 0.34830859375], [16.0, 0.34830859375], [16.0, 0.34830859375], [16.0, 0.34830859375], [16.0, 0.34830859375], [16.0, 0.34830859375], [16.0, 0.34830859375], [16.0, 0.34830859375], [16.0, 0.34830859375], [16.0, 0.34830859375], [16.0, 0.34830859375], [16.0, 0.34830859375], [16.0, 0.34830859375], [16.0, 0.34830859375], [16.0, 0.34830859375], [16.0, 0.34830859375], [16.0, 0.34830859375], [16.0, 0.34830859375], [16.0, 0.34830859375], [16.0, 0.34830859375], [16.0, 0.34830859375], [16.0, 0.34830859375], [16.0, 0.34830859375], [16.0, 0.34830859375], [16.0, 0.34830859375], [16.0, 0.34830859375], [16.0, 0.34830859375], [16.0, 0.34830859375], [16.0, 0.34830859375], [16.0, 0.34830859375], [16.0, 0.34830859375], [16.0, 0.34830859375], [16.0, 0.34830859375], [16.0, 0.34830859375], [16.0, 0.34830859375], [16.0, 0.34830859375], [16.0, 0.34830859375], [16.0, 0.34830859375], [16.0, 0.34830859375], [16.0, 0.34830859375], [16.0, 0.34830859375], [16.0, 0.34830859375], [16.0, 0.34830859375], [16.0, 0.34830859375], [16.0, 0.34830859375], [16.0, 0.34830859375], [16.0, 0.34830859375], [16.0, 0.34830859375], [16.0, 0.34830859375], [16.0, 0.34830859375], [16.0, 0.34830859375], [16.0, 0.34830859375], [16.0, 0.34830859375], [16.0, 0.34830859375], [16.0, 0.34830859375], [16.0, 0.34830859375], [16.0, 0.34830859375], [16.0, 0.34830859375], [16.0, 0.34830859375], [16.0, 0.34830859375], [16.0, 0.34830859375], [16.0, 0.34830859375], [16.0, 0.34830859375], [16.0, 0.34830859375], [16.0, 0.34830859375], [16.0, 0.34830859375], [16.0, 0.34830859375], [16.0, 0.34830859375], [16.0, 0.34830859375], [16.0, 0.34830859375], [16.0, 0.34830859375], [16.0, 0.34830859375], [16.0, 0.34830859375], [16.0, 0.34830859375], [16.0, 0.34830859375], [16.0, 0.34830859375], [16.0, 0.34830859375], [16.0, 0.34830859375], [16.0, 0.34830859375], [16.0, 0.34830859375], [16.0, 0.34830859375], [16.0, 0.34830859375], [16.0, 0.34830859375], [16.0, 0.34830859375], [16.0, 0.34830859375], [16.0, 0.34830859375], [16.0, 0.34830859375], [16.0, 0.34830859375], [16.0, 0.34830859375], [16.0, 0.34830859375], [16.0, 0.34830859375], [16.0, 0.34830859375], [16.0, 0.34830859375], [16.0, 0.34830859375], [16.0, 0.34830859375], [16.0, 0.34830859375], [16.0, 0.34830859375], [16.0, 0.34830859375], [16.0, 0.34830859375], [16.0, 0.34830859375], [16.0, 0.34830859375], [16.0, 0.34830859375], [16.0, 0.34830859375], [16.0, 0.34830859375], [16.0, 0.34830859375], [16.0, 0.34830859375], [16.0, 0.34830859375], [16.0, 0.34830859375], [16.0, 0.34830859375], [16.0, 0.34830859375], [16.0, 0.34830859375], [16.0, 0.34830859375], [16.0, 0.34830859375], [16.0, 0.34830859375], [16.0, 0.34830859375], [16.0, 0.34830859375], [16.0, 0.34830859375], [16.0, 0.34830859375], [16.0, 0.34830859375], [16.0, 0.34830859375], [16.0, 0.34830859375], [16.0, 0.34830859375], [16.0, 0.34830859375], [16.0, 0.34830859375], [16.0, 0.34830859375], [16.0, 0.34830859375], [16.0, 0.34830859375], [16.0, 0.34830859375], [16.0, 0.34830859375], [16.0, 0.34830859375], [16.0, 0.34830859375], [16.0, 0.34830859375], [16.0, 0.34830859375], [16.0, 0.34830859375], [16.0, 0.34830859375], [16.0, 0.34830859375], [16.0, 0.34830859375], [16.0, 0.34830859375], [16.0, 0.34830859375], [16.0, 0.34830859375], [16.0, 0.34830859375], [16.0, 0.34830859375], [16.0, 0.34830859375], [16.0, 0.34830859375], [16.0, 0.34830859375], [16.0, 0.34830859375], [16.0, 0.34830859375], [16.0, 0.34830859375], [16.0, 0.34830859375], [16.0, 0.34830859375], [16.0, 0.34830859375], [16.0, 0.34830859375], [16.0, 0.34830859375], [16.0, 0.34830859375], [16.0, 0.34830859375], [16.0, 0.34830859375], [16.0, 0.34830859375], [16.0, 0.34830859375], [16.0, 0.34830859375], [16.0, 0.34830859375], [16.0, 0.34830859375], [16.0, 0.34830859375], [16.0, 0.34830859375], [16.0, 0.34830859375], [16.0, 0.34830859375], [16.0, 0.34830859375], [16.0, 0.34830859375], [16.0, 0.34830859375], [16.0, 0.34830859375], [16.0, 0.34830859375], [16.0, 0.34830859375], [16.0, 0.34830859375], [16.0, 0.34830859375], [16.0, 0.34830859375], [16.0, 0.34830859375], [16.0, 0.34830859375], [16.0, 0.34830859375], [16.0, 0.34830859375], [16.0, 0.34830859375], [16.0, 0.34830859375], [16.0, 0.34830859375], [16.0, 0.34830859375], [16.0, 0.34830859375], [16.0, 0.34830859375], [16.0, 0.34830859375], [16.0, 0.34830859375], [16.0, 0.34830859375], [16.0, 0.34830859375], [16.0, 0.34830859375], [16.0, 0.34830859375], [16.0, 0.34830859375], [16.0, 0.34830859375], [16.0, 0.34830859375], [16.0, 0.34830859375], [16.0, 0.34830859375], [16.0, 0.34830859375], [16.0, 0.34830859375], [16.0, 0.34830859375], [16.0, 0.34830859375], [16.0, 0.34830859375], [16.0, 0.34830859375], [16.0, 0.34830859375], [16.0, 0.34830859375], [16.0, 0.34830859375], [16.0, 0.34830859375], [16.0, 0.34830859375], [16.0, 0.34830859375], [16.0, 0.34830859375], [16.0, 0.34830859375], [16.0, 0.34830859375], [16.0, 0.34830859375], [16.0, 0.34830859375], [16.0, 0.34830859375], [16.0, 0.34830859375], [16.0, 0.34830859375], [16.0, 0.34830859375], [16.0, 0.34830859375], [16.0, 0.34830859375], [16.0, 0.34830859375], [16.0, 0.34830859375], [16.0, 0.34830859375], [16.0, 0.34830859375], [16.0, 0.34830859375], [16.0, 0.34830859375], [16.0, 0.34830859375], [16.0, 0.34830859375], [16.0, 0.34830859375], [16.0, 0.34830859375], [16.0, 0.34830859375], [16.0, 0.34830859375], [16.0, 0.34830859375], [16.0, 0.34830859375], [16.0, 0.34830859375], [16.0, 0.34830859375], [16.0, 0.34830859375], [16.0, 0.34830859375], [16.0, 0.34830859375], [16.0, 0.34830859375], [16.0, 0.34830859375], [16.0, 0.34830859375], [16.0, 0.34830859375], [16.0, 0.34830859375], [16.0, 0.34830859375], [16.0, 0.34830859375], [16.0, 0.34830859375], [16.0, 0.34830859375], [16.0, 0.34830859375], [16.0, 0.34830859375], [16.0, 0.34830859375], [16.0, 0.34830859375], [16.0, 0.34830859375], [16.0, 0.34830859375], [16.0, 0.34830859375], [16.0, 0.34830859375], [16.0, 0.34830859375], [16.0, 0.34830859375], [16.0, 0.34830859375], [16.0, 0.34830859375], [16.0, 0.34830859375], [16.0, 0.34830859375], [16.0, 0.34830859375], [16.0, 0.34830859375], [16.0, 0.34830859375], [16.0, 0.34830859375], [16.0, 0.34830859375], [16.0, 0.34830859375], [16.0, 0.34830859375], [16.0, 0.34830859375], [16.0, 0.34830859375], [16.0, 0.34830859375], [16.0, 0.34830859375], [16.0, 0.34830859375], [16.0, 0.34830859375], [16.0, 0.34830859375], [16.0, 0.34830859375], [16.0, 0.34830859375], [16.0, 0.34830859375], [16.0, 0.34830859375], [16.0, 0.34830859375], [16.0, 0.34830859375], [16.0, 0.34830859375], [16.0, 0.34830859375], [16.0, 0.34830859375], [16.0, 0.34830859375], [16.0, 0.34830859375], [16.0, 0.34830859375], [16.0, 0.34830859375], [16.0, 0.34830859375], [16.0, 0.34830859375], [16.0, 0.34830859375], [16.0, 0.34830859375], [16.0, 0.34830859375], [16.0, 0.34830859375], [16.0, 0.34830859375], [16.0, 0.34830859375], [16.0, 0.34830859375], [16.0, 0.34830859375], [16.0, 0.34830859375], [16.0, 0.34830859375], [16.0, 0.34830859375], [16.0, 0.34830859375], [16.0, 0.34830859375], [16.0, 0.34830859375], [16.0, 0.34830859375], [16.0, 0.34830859375], [16.0, 0.34830859375], [16.0, 0.34830859375], [16.0, 0.34830859375], [16.0, 0.34830859375], [16.0, 0.34830859375], [16.0, 0.34830859375], [16.0, 0.34830859375], [16.0, 0.34830859375], [16.0, 0.34830859375], [16.0, 0.34830859375], [16.0, 0.34830859375], [16.0, 0.34830859375], [16.0, 0.34830859375], [16.0, 0.34830859375], [16.0, 0.34830859375], [16.0, 0.34830859375], [16.0, 0.34830859375], [16.0, 0.34830859375], [16.0, 0.34830859375], [16.0, 0.34830859375], [16.0, 0.34830859375], [16.0, 0.34830859375], [16.0, 0.34830859375], [16.0, 0.34830859375], [16.0, 0.34830859375], [16.0, 0.34830859375], [16.0, 0.34830859375], [16.0, 0.34830859375], [16.0, 0.34830859375], [16.0, 0.34830859375], [16.0, 0.34830859375], [16.0, 0.34830859375], [16.0, 0.34830859375], [16.0, 0.34830859375], [16.0, 0.34830859375], [16.0, 0.34830859375], [16.0, 0.34830859375], [16.0, 0.34830859375], [16.0, 0.34830859375], [16.0, 0.34830859375], [16.0, 0.34830859375], [16.0, 0.34830859375], [16.0, 0.34830859375], [16.0, 0.34830859375], [16.0, 0.34830859375], [16.0, 0.34830859375], [16.0, 0.34830859375], [16.0, 0.34830859375], [16.0, 0.34830859375], [16.0, 0.34830859375], [16.0, 0.34830859375], [16.0, 0.34830859375], [16.0, 0.34830859375], [16.0, 0.34830859375], [16.0, 0.34830859375], [16.0, 0.34830859375], [16.0, 0.34830859375], [16.0, 0.34830859375], [16.0, 0.34830859375], [16.0, 0.34830859375], [16.0, 0.34830859375]], [[32.0, 0.29367578124999993], [32.0, 0.29367578124999993], [32.0, 0.29367578124999993], [32.0, 0.29367578124999993], [32.0, 0.29367578124999993], [32.0, 0.29367578124999993], [32.0, 0.29367578124999993], [32.0, 0.29367578124999993], [32.0, 0.29367578124999993], [32.0, 0.29367578124999993], [32.0, 0.29367578124999993], [32.0, 0.29367578124999993], [32.0, 0.29367578124999993], [32.0, 0.29367578124999993], [32.0, 0.29367578124999993], [32.0, 0.29367578124999993], [32.0, 0.29367578124999993], [32.0, 0.29367578124999993], [32.0, 0.29367578124999993], [32.0, 0.29367578124999993], [32.0, 0.29367578124999993], [32.0, 0.29367578124999993], [32.0, 0.29367578124999993], [32.0, 0.29367578124999993], [32.0, 0.29367578124999993], [32.0, 0.29367578124999993], [32.0, 0.29367578124999993], [32.0, 0.29367578124999993], [32.0, 0.29367578124999993], [32.0, 0.29367578124999993], [32.0, 0.29367578124999993], [32.0, 0.29367578124999993], [32.0, 0.29367578124999993], [32.0, 0.29367578124999993], [32.0, 0.29367578124999993], [32.0, 0.29367578124999993], [32.0, 0.29367578124999993], [32.0, 0.29367578124999993], [32.0, 0.29367578124999993], [32.0, 0.29367578124999993], [32.0, 0.29367578124999993], [32.0, 0.29367578124999993], [32.0, 0.29367578124999993], [32.0, 0.29367578124999993], [32.0, 0.29367578124999993], [32.0, 0.29367578124999993], [32.0, 0.29367578124999993], [32.0, 0.29367578124999993], [32.0, 0.29367578124999993], [32.0, 0.29367578124999993], [32.0, 0.29367578124999993], [32.0, 0.29367578124999993], [32.0, 0.29367578124999993], [32.0, 0.29367578124999993], [32.0, 0.29367578124999993], [32.0, 0.29367578124999993], [32.0, 0.29367578124999993], [32.0, 0.29367578124999993], [32.0, 0.29367578124999993], [32.0, 0.29367578124999993], [32.0, 0.29367578124999993], [32.0, 0.29367578124999993], [32.0, 0.29367578124999993], [32.0, 0.29367578124999993], [32.0, 0.29367578124999993], [32.0, 0.29367578124999993], [32.0, 0.29367578124999993], [32.0, 0.29367578124999993], [32.0, 0.29367578124999993], [32.0, 0.29367578124999993], [32.0, 0.29367578124999993], [32.0, 0.29367578124999993], [32.0, 0.29367578124999993], [32.0, 0.29367578124999993], [32.0, 0.29367578124999993], [32.0, 0.29367578124999993], [32.0, 0.29367578124999993], [32.0, 0.29367578124999993], [32.0, 0.29367578124999993], [32.0, 0.29367578124999993], [32.0, 0.29367578124999993], [32.0, 0.29367578124999993], [32.0, 0.29367578124999993], [32.0, 0.29367578124999993], [32.0, 0.29367578124999993], [32.0, 0.29367578124999993], [32.0, 0.29367578124999993], [32.0, 0.29367578124999993], [32.0, 0.29367578124999993], [32.0, 0.29367578124999993], [32.0, 0.29367578124999993], [32.0, 0.29367578124999993], [32.0, 0.29367578124999993], [32.0, 0.29367578124999993], [32.0, 0.29367578124999993], [32.0, 0.29367578124999993], [32.0, 0.29367578124999993], [32.0, 0.29367578124999993], [32.0, 0.29367578124999993], [32.0, 0.29367578124999993], [32.0, 0.29367578124999993], [32.0, 0.29367578124999993], [32.0, 0.29367578124999993], [32.0, 0.29367578124999993], [32.0, 0.29367578124999993], [32.0, 0.29367578124999993], [32.0, 0.29367578124999993], [32.0, 0.29367578124999993], [32.0, 0.29367578124999993], [32.0, 0.29367578124999993], [32.0, 0.29367578124999993], [32.0, 0.29367578124999993], [32.0, 0.29367578124999993], [32.0, 0.29367578124999993], [32.0, 0.29367578124999993], [32.0, 0.29367578124999993], [32.0, 0.29367578124999993], [32.0, 0.29367578124999993], [32.0, 0.29367578124999993], [32.0, 0.29367578124999993], [32.0, 0.29367578124999993], [32.0, 0.29367578124999993], [32.0, 0.29367578124999993], [32.0, 0.29367578124999993], [32.0, 0.29367578124999993], [32.0, 0.29367578124999993], [32.0, 0.29367578124999993], [32.0, 0.29367578124999993], [32.0, 0.29367578124999993], [32.0, 0.29367578124999993], [32.0, 0.29367578124999993], [32.0, 0.29367578124999993], [32.0, 0.29367578124999993], [32.0, 0.29367578124999993], [32.0, 0.29367578124999993], [32.0, 0.29367578124999993], [32.0, 0.29367578124999993], [32.0, 0.29367578124999993], [32.0, 0.29367578124999993], [32.0, 0.29367578124999993], [32.0, 0.29367578124999993], [32.0, 0.29367578124999993], [32.0, 0.29367578124999993], [32.0, 0.29367578124999993], [32.0, 0.29367578124999993], [32.0, 0.29367578124999993], [32.0, 0.29367578124999993], [32.0, 0.29367578124999993], [32.0, 0.29367578124999993], [32.0, 0.29367578124999993], [32.0, 0.29367578124999993], [32.0, 0.29367578124999993], [32.0, 0.29367578124999993], [32.0, 0.29367578124999993], [32.0, 0.29367578124999993], [32.0, 0.29367578124999993], [32.0, 0.29367578124999993], [32.0, 0.29367578124999993], [32.0, 0.29367578124999993], [32.0, 0.29367578124999993], [32.0, 0.29367578124999993], [32.0, 0.29367578124999993], [32.0, 0.29367578124999993], [32.0, 0.29367578124999993], [32.0, 0.29367578124999993], [32.0, 0.29367578124999993], [32.0, 0.29367578124999993], [32.0, 0.29367578124999993], [32.0, 0.29367578124999993], [32.0, 0.29367578124999993], [32.0, 0.29367578124999993], [32.0, 0.29367578124999993], [32.0, 0.29367578124999993], [32.0, 0.29367578124999993], [32.0, 0.29367578124999993], [32.0, 0.29367578124999993], [32.0, 0.29367578124999993], [32.0, 0.29367578124999993], [32.0, 0.29367578124999993], [32.0, 0.29367578124999993], [32.0, 0.29367578124999993], [32.0, 0.29367578124999993], [32.0, 0.29367578124999993], [32.0, 0.29367578124999993], [32.0, 0.29367578124999993], [32.0, 0.29367578124999993], [32.0, 0.29367578124999993], [32.0, 0.29367578124999993], [32.0, 0.29367578124999993], [32.0, 0.29367578124999993], [32.0, 0.29367578124999993], [32.0, 0.29367578124999993], [32.0, 0.29367578124999993], [32.0, 0.29367578124999993], [32.0, 0.29367578124999993], [32.0, 0.29367578124999993], [32.0, 0.29367578124999993], [32.0, 0.29367578124999993], [32.0, 0.29367578124999993], [32.0, 0.29367578124999993], [32.0, 0.29367578124999993], [32.0, 0.29367578124999993], [32.0, 0.29367578124999993], [32.0, 0.29367578124999993], [32.0, 0.29367578124999993], [32.0, 0.29367578124999993], [32.0, 0.29367578124999993], [32.0, 0.29367578124999993], [32.0, 0.29367578124999993], [32.0, 0.29367578124999993], [32.0, 0.29367578124999993], [32.0, 0.29367578124999993], [32.0, 0.29367578124999993], [32.0, 0.29367578124999993], [32.0, 0.29367578124999993], [32.0, 0.29367578124999993], [32.0, 0.29367578124999993], [32.0, 0.29367578124999993], [32.0, 0.29367578124999993], [32.0, 0.29367578124999993], [32.0, 0.29367578124999993], [32.0, 0.29367578124999993], [32.0, 0.29367578124999993], [32.0, 0.29367578124999993], [32.0, 0.29367578124999993], [32.0, 0.29367578124999993], [32.0, 0.29367578124999993], [32.0, 0.29367578124999993], [32.0, 0.29367578124999993], [32.0, 0.29367578124999993], [32.0, 0.29367578124999993], [32.0, 0.29367578124999993], [32.0, 0.29367578124999993], [32.0, 0.29367578124999993], [32.0, 0.29367578124999993], [32.0, 0.29367578124999993], [32.0, 0.29367578124999993], [32.0, 0.29367578124999993], [32.0, 0.29367578124999993], [32.0, 0.29367578124999993], [32.0, 0.29367578124999993], [32.0, 0.29367578124999993], [32.0, 0.29367578124999993], [32.0, 0.29367578124999993], [32.0, 0.29367578124999993], [32.0, 0.29367578124999993], [32.0, 0.29367578124999993], [32.0, 0.29367578124999993], [32.0, 0.29367578124999993], [32.0, 0.29367578124999993], [32.0, 0.29367578124999993], [32.0, 0.29367578124999993], [32.0, 0.29367578124999993], [32.0, 0.29367578124999993], [32.0, 0.29367578124999993], [32.0, 0.29367578124999993], [32.0, 0.29367578124999993], [32.0, 0.29367578124999993], [32.0, 0.29367578124999993], [32.0, 0.29367578124999993], [32.0, 0.29367578124999993], [32.0, 0.29367578124999993], [32.0, 0.29367578124999993], [32.0, 0.29367578124999993], [32.0, 0.29367578124999993], [32.0, 0.29367578124999993], [32.0, 0.29367578124999993], [32.0, 0.29367578124999993], [32.0, 0.29367578124999993], [32.0, 0.29367578124999993], [32.0, 0.29367578124999993], [32.0, 0.29367578124999993], [32.0, 0.29367578124999993], [32.0, 0.29367578124999993], [32.0, 0.29367578124999993], [32.0, 0.29367578124999993], [32.0, 0.29367578124999993], [32.0, 0.29367578124999993], [32.0, 0.29367578124999993], [32.0, 0.29367578124999993], [32.0, 0.29367578124999993], [32.0, 0.29367578124999993], [32.0, 0.29367578124999993], [32.0, 0.29367578124999993], [32.0, 0.29367578124999993], [32.0, 0.29367578124999993], [32.0, 0.29367578124999993], [32.0, 0.29367578124999993], [32.0, 0.29367578124999993], [32.0, 0.29367578124999993], [32.0, 0.29367578124999993], [32.0, 0.29367578124999993], [32.0, 0.29367578124999993], [32.0, 0.29367578124999993], [32.0, 0.29367578124999993], [32.0, 0.29367578124999993], [32.0, 0.29367578124999993], [32.0, 0.29367578124999993], [32.0, 0.29367578124999993], [32.0, 0.29367578124999993], [32.0, 0.29367578124999993], [32.0, 0.29367578124999993], [32.0, 0.29367578124999993], [32.0, 0.29367578124999993], [32.0, 0.29367578124999993], [32.0, 0.29367578124999993], [32.0, 0.29367578124999993], [32.0, 0.29367578124999993], [32.0, 0.29367578124999993], [32.0, 0.29367578124999993], [32.0, 0.29367578124999993], [32.0, 0.29367578124999993], [32.0, 0.29367578124999993], [32.0, 0.29367578124999993], [32.0, 0.29367578124999993], [32.0, 0.29367578124999993], [32.0, 0.29367578124999993], [32.0, 0.29367578124999993], [32.0, 0.29367578124999993], [32.0, 0.29367578124999993], [32.0, 0.29367578124999993], [32.0, 0.29367578124999993], [32.0, 0.29367578124999993], [32.0, 0.29367578124999993], [32.0, 0.29367578124999993], [32.0, 0.29367578124999993], [32.0, 0.29367578124999993], [32.0, 0.29367578124999993], [32.0, 0.29367578124999993], [32.0, 0.29367578124999993], [32.0, 0.29367578124999993], [32.0, 0.29367578124999993], [32.0, 0.29367578124999993], [32.0, 0.29367578124999993], [32.0, 0.29367578124999993], [32.0, 0.29367578124999993], [32.0, 0.29367578124999993], [32.0, 0.29367578124999993], [32.0, 0.29367578124999993], [32.0, 0.29367578124999993], [32.0, 0.29367578124999993], [32.0, 0.29367578124999993], [32.0, 0.29367578124999993], [32.0, 0.29367578124999993], [32.0, 0.29367578124999993], [32.0, 0.29367578124999993], [32.0, 0.29367578124999993], [32.0, 0.29367578124999993], [32.0, 0.29367578124999993], [32.0, 0.29367578124999993], [32.0, 0.29367578124999993], [32.0, 0.29367578124999993], [32.0, 0.29367578124999993], [32.0, 0.29367578124999993], [32.0, 0.29367578124999993], [32.0, 0.29367578124999993], [32.0, 0.29367578124999993], [32.0, 0.29367578124999993], [32.0, 0.29367578124999993], [32.0, 0.29367578124999993], [32.0, 0.29367578124999993], [32.0, 0.29367578124999993], [32.0, 0.29367578124999993], [32.0, 0.29367578124999993], [32.0, 0.29367578124999993], [32.0, 0.29367578124999993], [32.0, 0.29367578124999993], [32.0, 0.29367578124999993], [32.0, 0.29367578124999993], [32.0, 0.29367578124999993], [32.0, 0.29367578124999993], [32.0, 0.29367578124999993], [32.0, 0.29367578124999993], [32.0, 0.29367578124999993], [32.0, 0.29367578124999993], [32.0, 0.29367578124999993], [32.0, 0.29367578124999993], [32.0, 0.29367578124999993], [32.0, 0.29367578124999993], [32.0, 0.29367578124999993], [32.0, 0.29367578124999993], [32.0, 0.29367578124999993], [32.0, 0.29367578124999993], [32.0, 0.29367578124999993], [32.0, 0.29367578124999993], [32.0, 0.29367578124999993], [32.0, 0.29367578124999993], [32.0, 0.29367578124999993], [32.0, 0.29367578124999993], [32.0, 0.29367578124999993], [32.0, 0.29367578124999993], [32.0, 0.29367578124999993], [32.0, 0.29367578124999993], [32.0, 0.29367578124999993], [32.0, 0.29367578124999993], [32.0, 0.29367578124999993], [32.0, 0.29367578124999993], [32.0, 0.29367578124999993], [32.0, 0.29367578124999993], [32.0, 0.29367578124999993], [32.0, 0.29367578124999993], [32.0, 0.29367578124999993], [32.0, 0.29367578124999993], [32.0, 0.29367578124999993], [32.0, 0.29367578124999993], [32.0, 0.29367578124999993], [32.0, 0.29367578124999993], [32.0, 0.29367578124999993], [32.0, 0.29367578124999993], [32.0, 0.29367578124999993], [32.0, 0.29367578124999993], [32.0, 0.29367578124999993], [32.0, 0.29367578124999993], [32.0, 0.29367578124999993], [32.0, 0.29367578124999993], [32.0, 0.29367578124999993], [32.0, 0.29367578124999993], [32.0, 0.29367578124999993], [32.0, 0.29367578124999993], [32.0, 0.29367578124999993], [32.0, 0.29367578124999993], [32.0, 0.29367578124999993], [32.0, 0.29367578124999993], [32.0, 0.29367578124999993], [32.0, 0.29367578124999993], [32.0, 0.29367578124999993], [32.0, 0.29367578124999993], [32.0, 0.29367578124999993], [32.0, 0.29367578124999993], [32.0, 0.29367578124999993], [32.0, 0.29367578124999993], [32.0, 0.29367578124999993], [32.0, 0.29367578124999993], [32.0, 0.29367578124999993], [32.0, 0.29367578124999993], [32.0, 0.29367578124999993], [32.0, 0.29367578124999993], [32.0, 0.29367578124999993], [32.0, 0.29367578124999993], [32.0, 0.29367578124999993], [32.0, 0.29367578124999993], [32.0, 0.29367578124999993], [32.0, 0.29367578124999993], [32.0, 0.29367578124999993], [32.0, 0.29367578124999993], [32.0, 0.29367578124999993], [32.0, 0.29367578124999993], [32.0, 0.29367578124999993], [32.0, 0.29367578124999993], [32.0, 0.29367578124999993], [32.0, 0.29367578124999993], [32.0, 0.29367578124999993], [32.0, 0.29367578124999993], [32.0, 0.29367578124999993], [32.0, 0.29367578124999993], [32.0, 0.29367578124999993], [32.0, 0.29367578124999993], [32.0, 0.29367578124999993], [32.0, 0.29367578124999993], [32.0, 0.29367578124999993], [32.0, 0.29367578124999993], [32.0, 0.29367578124999993], [32.0, 0.29367578124999993], [32.0, 0.29367578124999993], [32.0, 0.29367578124999993], [32.0, 0.29367578124999993], [32.0, 0.29367578124999993], [32.0, 0.29367578124999993], [32.0, 0.29367578124999993], [32.0, 0.29367578124999993], [32.0, 0.29367578124999993], [32.0, 0.29367578124999993], [32.0, 0.29367578124999993], [32.0, 0.29367578124999993], [32.0, 0.29367578124999993], [32.0, 0.29367578124999993], [32.0, 0.29367578124999993], [32.0, 0.29367578124999993], [32.0, 0.29367578124999993], [32.0, 0.29367578124999993], [32.0, 0.29367578124999993], [32.0, 0.29367578124999993], [32.0, 0.29367578124999993], [32.0, 0.29367578124999993], [32.0, 0.29367578124999993], [32.0, 0.29367578124999993], [32.0, 0.29367578124999993], [32.0, 0.29367578124999993], [32.0, 0.29367578124999993], [32.0, 0.29367578124999993], [32.0, 0.29367578124999993], [32.0, 0.29367578124999993], [32.0, 0.29367578124999993], [32.0, 0.29367578124999993], [32.0, 0.29367578124999993], [32.0, 0.29367578124999993], [32.0, 0.29367578124999993], [32.0, 0.29367578124999993], [32.0, 0.29367578124999993], [32.0, 0.29367578124999993], [32.0, 0.29367578124999993], [32.0, 0.29367578124999993], [32.0, 0.29367578124999993], [32.0, 0.29367578124999993], [32.0, 0.29367578124999993], [32.0, 0.29367578124999993], [32.0, 0.29367578124999993], [32.0, 0.29367578124999993], [32.0, 0.29367578124999993], [32.0, 0.29367578124999993], [32.0, 0.29367578124999993], [32.0, 0.29367578124999993], [32.0, 0.29367578124999993], [32.0, 0.29367578124999993], [32.0, 0.29367578124999993], [32.0, 0.29367578124999993], [32.0, 0.29367578124999993], [32.0, 0.29367578124999993], [32.0, 0.29367578124999993], [32.0, 0.29367578124999993], [32.0, 0.29367578124999993], [32.0, 0.29367578124999993], [32.0, 0.29367578124999993], [32.0, 0.29367578124999993], [32.0, 0.29367578124999993], [32.0, 0.29367578124999993], [32.0, 0.29367578124999993], [32.0, 0.29367578124999993], [32.0, 0.29367578124999993], [32.0, 0.29367578124999993], [32.0, 0.29367578124999993], [32.0, 0.29367578124999993], [32.0, 0.29367578124999993], [32.0, 0.29367578124999993], [32.0, 0.29367578124999993], [32.0, 0.29367578124999993], [32.0, 0.29367578124999993], [32.0, 0.29367578124999993], [32.0, 0.29367578124999993], [32.0, 0.29367578124999993], [32.0, 0.29367578124999993], [32.0, 0.29367578124999993], [32.0, 0.29367578124999993], [32.0, 0.29367578124999993], [32.0, 0.29367578124999993], [32.0, 0.29367578124999993], [32.0, 0.29367578124999993], [32.0, 0.29367578124999993], [32.0, 0.29367578124999993], [32.0, 0.29367578124999993], [32.0, 0.29367578124999993], [32.0, 0.29367578124999993], [32.0, 0.29367578124999993], [32.0, 0.29367578124999993], [32.0, 0.29367578124999993], [32.0, 0.29367578124999993], [32.0, 0.29367578124999993], [32.0, 0.29367578124999993], [32.0, 0.29367578124999993], [32.0, 0.29367578124999993], [32.0, 0.29367578124999993], [32.0, 0.29367578124999993], [32.0, 0.29367578124999993], [32.0, 0.29367578124999993], [32.0, 0.29367578124999993], [32.0, 0.29367578124999993], [32.0, 0.29367578124999993], [32.0, 0.29367578124999993], [32.0, 0.29367578124999993], [32.0, 0.29367578124999993], [32.0, 0.29367578124999993], [32.0, 0.29367578124999993], [32.0, 0.29367578124999993], [32.0, 0.29367578124999993], [32.0, 0.29367578124999993], [32.0, 0.29367578124999993], [32.0, 0.29367578124999993], [32.0, 0.29367578124999993], [32.0, 0.29367578124999993], [32.0, 0.29367578124999993], [32.0, 0.29367578124999993], [32.0, 0.29367578124999993], [32.0, 0.29367578124999993], [32.0, 0.29367578124999993], [32.0, 0.29367578124999993], [32.0, 0.29367578124999993], [32.0, 0.29367578124999993], [32.0, 0.29367578124999993], [32.0, 0.29367578124999993], [32.0, 0.29367578124999993], [32.0, 0.29367578124999993], [32.0, 0.29367578124999993], [32.0, 0.29367578124999993], [32.0, 0.29367578124999993], [32.0, 0.29367578124999993], [32.0, 0.29367578124999993], [32.0, 0.29367578124999993], [32.0, 0.29367578124999993], [32.0, 0.29367578124999993], [32.0, 0.29367578124999993], [32.0, 0.29367578124999993], [32.0, 0.29367578124999993], [32.0, 0.29367578124999993], [32.0, 0.29367578124999993], [32.0, 0.29367578124999993], [32.0, 0.29367578124999993], [32.0, 0.29367578124999993], [32.0, 0.29367578124999993], [32.0, 0.29367578124999993], [32.0, 0.29367578124999993], [32.0, 0.29367578124999993], [32.0, 0.29367578124999993], [32.0, 0.29367578124999993], [32.0, 0.29367578124999993], [32.0, 0.29367578124999993], [32.0, 0.29367578124999993], [32.0, 0.29367578124999993], [32.0, 0.29367578124999993], [32.0, 0.29367578124999993], [32.0, 0.29367578124999993], [32.0, 0.29367578124999993], [32.0, 0.29367578124999993], [32.0, 0.29367578124999993], [32.0, 0.29367578124999993], [32.0, 0.29367578124999993], [32.0, 0.29367578124999993], [32.0, 0.29367578124999993], [32.0, 0.29367578124999993], [32.0, 0.29367578124999993], [32.0, 0.29367578124999993], [32.0, 0.29367578124999993], [32.0, 0.29367578124999993], [32.0, 0.29367578124999993], [32.0, 0.29367578124999993], [32.0, 0.29367578124999993], [32.0, 0.29367578124999993], [32.0, 0.29367578124999993], [32.0, 0.29367578124999993], [32.0, 0.29367578124999993], [32.0, 0.29367578124999993], [32.0, 0.29367578124999993], [32.0, 0.29367578124999993], [32.0, 0.29367578124999993], [32.0, 0.29367578124999993], [32.0, 0.29367578124999993], [32.0, 0.29367578124999993], [32.0, 0.29367578124999993], [32.0, 0.29367578124999993], [32.0, 0.29367578124999993], [32.0, 0.29367578124999993], [32.0, 0.29367578124999993], [32.0, 0.29367578124999993], [32.0, 0.29367578124999993], [32.0, 0.29367578124999993], [32.0, 0.29367578124999993], [32.0, 0.29367578124999993], [32.0, 0.29367578124999993], [32.0, 0.29367578124999993], [32.0, 0.29367578124999993], [32.0, 0.29367578124999993], [32.0, 0.29367578124999993], [32.0, 0.29367578124999993], [32.0, 0.29367578124999993], [32.0, 0.29367578124999993], [32.0, 0.29367578124999993], [32.0, 0.29367578124999993], [32.0, 0.29367578124999993], [32.0, 0.29367578124999993], [32.0, 0.29367578124999993], [32.0, 0.29367578124999993], [32.0, 0.29367578124999993], [32.0, 0.29367578124999993], [32.0, 0.29367578124999993], [32.0, 0.29367578124999993], [32.0, 0.29367578124999993], [32.0, 0.29367578124999993], [32.0, 0.29367578124999993], [32.0, 0.29367578124999993], [32.0, 0.29367578124999993], [32.0, 0.29367578124999993], [32.0, 0.29367578124999993], [32.0, 0.29367578124999993], [32.0, 0.29367578124999993], [32.0, 0.29367578124999993], [32.0, 0.29367578124999993], [32.0, 0.29367578124999993], [32.0, 0.29367578124999993], [32.0, 0.29367578124999993], [32.0, 0.29367578124999993], [32.0, 0.29367578124999993], [32.0, 0.29367578124999993], [32.0, 0.29367578124999993], [32.0, 0.29367578124999993], [32.0, 0.29367578124999993], [32.0, 0.29367578124999993], [32.0, 0.29367578124999993], [32.0, 0.29367578124999993], [32.0, 0.29367578124999993], [32.0, 0.29367578124999993], [32.0, 0.29367578124999993], [32.0, 0.29367578124999993], [32.0, 0.29367578124999993], [32.0, 0.29367578124999993], [32.0, 0.29367578124999993], [32.0, 0.29367578124999993], [32.0, 0.29367578124999993], [32.0, 0.29367578124999993], [32.0, 0.29367578124999993], [32.0, 0.29367578124999993], [32.0, 0.29367578124999993], [32.0, 0.29367578124999993], [32.0, 0.29367578124999993], [32.0, 0.29367578124999993], [32.0, 0.29367578124999993], [32.0, 0.29367578124999993], [32.0, 0.29367578124999993], [32.0, 0.29367578124999993], [32.0, 0.29367578124999993], [32.0, 0.29367578124999993], [32.0, 0.29367578124999993], [32.0, 0.29367578124999993], [32.0, 0.29367578124999993], [32.0, 0.29367578124999993], [32.0, 0.29367578124999993], [32.0, 0.29367578124999993], [32.0, 0.29367578124999993], [32.0, 0.29367578124999993], [32.0, 0.29367578124999993], [32.0, 0.29367578124999993], [32.0, 0.29367578124999993], [32.0, 0.29367578124999993], [32.0, 0.29367578124999993], [32.0, 0.29367578124999993], [32.0, 0.29367578124999993], [32.0, 0.29367578124999993], [32.0, 0.29367578124999993], [32.0, 0.29367578124999993], [32.0, 0.29367578124999993], [32.0, 0.29367578124999993], [32.0, 0.29367578124999993], [32.0, 0.29367578124999993], [32.0, 0.29367578124999993], [32.0, 0.29367578124999993], [32.0, 0.29367578124999993], [32.0, 0.29367578124999993], [32.0, 0.29367578124999993], [32.0, 0.29367578124999993], [32.0, 0.29367578124999993], [32.0, 0.29367578124999993], [32.0, 0.29367578124999993], [32.0, 0.29367578124999993], [32.0, 0.29367578124999993], [32.0, 0.29367578124999993], [32.0, 0.29367578124999993], [32.0, 0.29367578124999993], [32.0, 0.29367578124999993], [32.0, 0.29367578124999993], [32.0, 0.29367578124999993], [32.0, 0.29367578124999993], [32.0, 0.29367578124999993], [32.0, 0.29367578124999993], [32.0, 0.29367578124999993], [32.0, 0.29367578124999993], [32.0, 0.29367578124999993], [32.0, 0.29367578124999993], [32.0, 0.29367578124999993], [32.0, 0.29367578124999993], [32.0, 0.29367578124999993], [32.0, 0.29367578124999993], [32.0, 0.29367578124999993], [32.0, 0.29367578124999993], [32.0, 0.29367578124999993], [32.0, 0.29367578124999993], [32.0, 0.29367578124999993], [32.0, 0.29367578124999993], [32.0, 0.29367578124999993], [32.0, 0.29367578124999993], [32.0, 0.29367578124999993], [32.0, 0.29367578124999993], [32.0, 0.29367578124999993], [32.0, 0.29367578124999993], [32.0, 0.29367578124999993], [32.0, 0.29367578124999993], [32.0, 0.29367578124999993], [32.0, 0.29367578124999993], [32.0, 0.29367578124999993], [32.0, 0.29367578124999993], [32.0, 0.29367578124999993], [32.0, 0.29367578124999993], [32.0, 0.29367578124999993], [32.0, 0.29367578124999993], [32.0, 0.29367578124999993], [32.0, 0.29367578124999993], [32.0, 0.29367578124999993], [32.0, 0.29367578124999993], [32.0, 0.29367578124999993], [32.0, 0.29367578124999993], [32.0, 0.29367578124999993], [32.0, 0.29367578124999993], [32.0, 0.29367578124999993], [32.0, 0.29367578124999993], [32.0, 0.29367578124999993], [32.0, 0.29367578124999993], [32.0, 0.29367578124999993], [32.0, 0.29367578124999993], [32.0, 0.29367578124999993], [32.0, 0.29367578124999993], [32.0, 0.29367578124999993], [32.0, 0.29367578124999993], [32.0, 0.29367578124999993], [32.0, 0.29367578124999993], [32.0, 0.29367578124999993], [32.0, 0.29367578124999993], [32.0, 0.29367578124999993], [32.0, 0.29367578124999993], [32.0, 0.29367578124999993], [32.0, 0.29367578124999993], [32.0, 0.29367578124999993], [32.0, 0.29367578124999993], [32.0, 0.29367578124999993], [32.0, 0.29367578124999993], [32.0, 0.29367578124999993], [32.0, 0.29367578124999993], [32.0, 0.29367578124999993], [32.0, 0.29367578124999993], [32.0, 0.29367578124999993], [32.0, 0.29367578124999993], [32.0, 0.29367578124999993], [32.0, 0.29367578124999993], [32.0, 0.29367578124999993], [32.0, 0.29367578124999993], [32.0, 0.29367578124999993], [32.0, 0.29367578124999993], [32.0, 0.29367578124999993], [32.0, 0.29367578124999993], [32.0, 0.29367578124999993], [32.0, 0.29367578124999993], [32.0, 0.29367578124999993], [32.0, 0.29367578124999993], [32.0, 0.29367578124999993], [32.0, 0.29367578124999993], [32.0, 0.29367578124999993], [32.0, 0.29367578124999993], [32.0, 0.29367578124999993], [32.0, 0.29367578124999993], [32.0, 0.29367578124999993], [32.0, 0.29367578124999993], [32.0, 0.29367578124999993], [32.0, 0.29367578124999993], [32.0, 0.29367578124999993], [32.0, 0.29367578124999993], [32.0, 0.29367578124999993], [32.0, 0.29367578124999993], [32.0, 0.29367578124999993], [32.0, 0.29367578124999993], [32.0, 0.29367578124999993], [32.0, 0.29367578124999993], [32.0, 0.29367578124999993], [32.0, 0.29367578124999993], [32.0, 0.29367578124999993], [32.0, 0.29367578124999993], [32.0, 0.29367578124999993], [32.0, 0.29367578124999993], [32.0, 0.29367578124999993], [32.0, 0.29367578124999993], [32.0, 0.29367578124999993], [32.0, 0.29367578124999993], [32.0, 0.29367578124999993], [32.0, 0.29367578124999993], [32.0, 0.29367578124999993], [32.0, 0.29367578124999993], [32.0, 0.29367578124999993], [32.0, 0.29367578124999993], [32.0, 0.29367578124999993], [32.0, 0.29367578124999993], [32.0, 0.29367578124999993], [32.0, 0.29367578124999993], [32.0, 0.29367578124999993], [32.0, 0.29367578124999993], [32.0, 0.29367578124999993], [32.0, 0.29367578124999993], [32.0, 0.29367578124999993], [32.0, 0.29367578124999993], [32.0, 0.29367578124999993], [32.0, 0.29367578124999993], [32.0, 0.29367578124999993], [32.0, 0.29367578124999993], [32.0, 0.29367578124999993], [32.0, 0.29367578124999993], [32.0, 0.29367578124999993], [32.0, 0.29367578124999993], [32.0, 0.29367578124999993], [32.0, 0.29367578124999993], [32.0, 0.29367578124999993], [32.0, 0.29367578124999993], [32.0, 0.29367578124999993], [32.0, 0.29367578124999993], [32.0, 0.29367578124999993], [32.0, 0.29367578124999993], [32.0, 0.29367578124999993], [32.0, 0.29367578124999993], [32.0, 0.29367578124999993], [32.0, 0.29367578124999993], [32.0, 0.29367578124999993], [32.0, 0.29367578124999993], [32.0, 0.29367578124999993], [32.0, 0.29367578124999993], [32.0, 0.29367578124999993], [32.0, 0.29367578124999993], [32.0, 0.29367578124999993], [32.0, 0.29367578124999993], [32.0, 0.29367578124999993], [32.0, 0.29367578124999993], [32.0, 0.29367578124999993], [32.0, 0.29367578124999993], [32.0, 0.29367578124999993], [32.0, 0.29367578124999993], [32.0, 0.29367578124999993], [32.0, 0.29367578124999993], [32.0, 0.29367578124999993], [32.0, 0.29367578124999993], [32.0, 0.29367578124999993], [32.0, 0.29367578124999993], [32.0, 0.29367578124999993], [32.0, 0.29367578124999993], [32.0, 0.29367578124999993], [32.0, 0.29367578124999993], [32.0, 0.29367578124999993], [32.0, 0.29367578124999993], [32.0, 0.29367578124999993], [32.0, 0.29367578124999993], [32.0, 0.29367578124999993], [32.0, 0.29367578124999993], [32.0, 0.29367578124999993], [32.0, 0.29367578124999993], [32.0, 0.29367578124999993], [32.0, 0.29367578124999993], [32.0, 0.29367578124999993], [32.0, 0.29367578124999993], [32.0, 0.29367578124999993], [32.0, 0.29367578124999993], [32.0, 0.29367578124999993], [32.0, 0.29367578124999993], [32.0, 0.29367578124999993], [32.0, 0.29367578124999993], [32.0, 0.29367578124999993], [32.0, 0.29367578124999993], [32.0, 0.29367578124999993], [32.0, 0.29367578124999993], [32.0, 0.29367578124999993], [32.0, 0.29367578124999993], [32.0, 0.29367578124999993], [32.0, 0.29367578124999993], [32.0, 0.29367578124999993], [32.0, 0.29367578124999993], [32.0, 0.29367578124999993], [32.0, 0.29367578124999993], [32.0, 0.29367578124999993], [32.0, 0.29367578124999993], [32.0, 0.29367578124999993], [32.0, 0.29367578124999993], [32.0, 0.29367578124999993], [32.0, 0.29367578124999993], [32.0, 0.29367578124999993], [32.0, 0.29367578124999993], [32.0, 0.29367578124999993], [32.0, 0.29367578124999993], [32.0, 0.29367578124999993], [32.0, 0.29367578124999993], [32.0, 0.29367578124999993], [32.0, 0.29367578124999993], [32.0, 0.29367578124999993], [32.0, 0.29367578124999993], [32.0, 0.29367578124999993], [32.0, 0.29367578124999993], [32.0, 0.29367578124999993], [32.0, 0.29367578124999993], [32.0, 0.29367578124999993], [32.0, 0.29367578124999993], [32.0, 0.29367578124999993], [32.0, 0.29367578124999993], [32.0, 0.29367578124999993], [32.0, 0.29367578124999993], [32.0, 0.29367578124999993], [32.0, 0.29367578124999993], [32.0, 0.29367578124999993], [32.0, 0.29367578124999993], [32.0, 0.29367578124999993], [32.0, 0.29367578124999993], [32.0, 0.29367578124999993], [32.0, 0.29367578124999993], [32.0, 0.29367578124999993], [32.0, 0.29367578124999993], [32.0, 0.29367578124999993], [32.0, 0.29367578124999993], [32.0, 0.29367578124999993], [32.0, 0.29367578124999993], [32.0, 0.29367578124999993], [32.0, 0.29367578124999993], [32.0, 0.29367578124999993], [32.0, 0.29367578124999993], [32.0, 0.29367578124999993], [32.0, 0.29367578124999993], [32.0, 0.29367578124999993], [32.0, 0.29367578124999993], [32.0, 0.29367578124999993], [32.0, 0.29367578124999993], [32.0, 0.29367578124999993], [32.0, 0.29367578124999993], [32.0, 0.29367578124999993], [32.0, 0.29367578124999993], [32.0, 0.29367578124999993], [32.0, 0.29367578124999993], [32.0, 0.29367578124999993], [32.0, 0.29367578124999993], [32.0, 0.29367578124999993], [32.0, 0.29367578124999993], [32.0, 0.29367578124999993], [32.0, 0.29367578124999993], [32.0, 0.29367578124999993], [32.0, 0.29367578124999993], [32.0, 0.29367578124999993], [32.0, 0.29367578124999993], [32.0, 0.29367578124999993], [32.0, 0.29367578124999993], [32.0, 0.29367578124999993], [32.0, 0.29367578124999993], [32.0, 0.29367578124999993], [32.0, 0.29367578124999993], [32.0, 0.29367578124999993], [32.0, 0.29367578124999993], [32.0, 0.29367578124999993], [32.0, 0.29367578124999993], [32.0, 0.29367578124999993], [32.0, 0.29367578124999993], [32.0, 0.29367578124999993], [32.0, 0.29367578124999993], [32.0, 0.29367578124999993], [32.0, 0.29367578124999993], [32.0, 0.29367578124999993], [32.0, 0.29367578124999993], [32.0, 0.29367578124999993], [32.0, 0.29367578124999993], [32.0, 0.29367578124999993], [32.0, 0.29367578124999993], [32.0, 0.29367578124999993], [32.0, 0.29367578124999993], [32.0, 0.29367578124999993], [32.0, 0.29367578124999993], [32.0, 0.29367578124999993], [32.0, 0.29367578124999993], [32.0, 0.29367578124999993], [32.0, 0.29367578124999993], [32.0, 0.29367578124999993], [32.0, 0.29367578124999993], [32.0, 0.29367578124999993], [32.0, 0.29367578124999993], [32.0, 0.29367578124999993], [32.0, 0.29367578124999993], [32.0, 0.29367578124999993], [32.0, 0.29367578124999993], [32.0, 0.29367578124999993], [32.0, 0.29367578124999993], [32.0, 0.29367578124999993], [32.0, 0.29367578124999993], [32.0, 0.29367578124999993], [32.0, 0.29367578124999993], [32.0, 0.29367578124999993], [32.0, 0.29367578124999993], [32.0, 0.29367578124999993], [32.0, 0.29367578124999993], [32.0, 0.29367578124999993], [32.0, 0.29367578124999993], [32.0, 0.29367578124999993], [32.0, 0.29367578124999993], [32.0, 0.29367578124999993], [32.0, 0.29367578124999993], [32.0, 0.29367578124999993], [32.0, 0.29367578124999993], [32.0, 0.29367578124999993], [32.0, 0.29367578124999993], [32.0, 0.29367578124999993], [32.0, 0.29367578124999993], [32.0, 0.29367578124999993], [32.0, 0.29367578124999993], [32.0, 0.29367578124999993], [32.0, 0.29367578124999993], [32.0, 0.29367578124999993], [32.0, 0.29367578124999993], [32.0, 0.29367578124999993], [32.0, 0.29367578124999993], [32.0, 0.29367578124999993], [32.0, 0.29367578124999993], [32.0, 0.29367578124999993], [32.0, 0.29367578124999993], [32.0, 0.29367578124999993], [32.0, 0.29367578124999993], [32.0, 0.29367578124999993], [32.0, 0.29367578124999993], [32.0, 0.29367578124999993], [32.0, 0.29367578124999993], [32.0, 0.29367578124999993], [32.0, 0.29367578124999993], [32.0, 0.29367578124999993], [32.0, 0.29367578124999993], [32.0, 0.29367578124999993], [32.0, 0.29367578124999993], [32.0, 0.29367578124999993], [32.0, 0.29367578124999993], [32.0, 0.29367578124999993], [32.0, 0.29367578124999993], [32.0, 0.29367578124999993], [32.0, 0.29367578124999993], [32.0, 0.29367578124999993], [32.0, 0.29367578124999993], [32.0, 0.29367578124999993], [32.0, 0.29367578124999993], [32.0, 0.29367578124999993], [32.0, 0.29367578124999993], [32.0, 0.29367578124999993], [32.0, 0.29367578124999993], [32.0, 0.29367578124999993], [32.0, 0.29367578124999993], [32.0, 0.29367578124999993], [32.0, 0.29367578124999993], [32.0, 0.29367578124999993], [32.0, 0.29367578124999993], [32.0, 0.29367578124999993], [32.0, 0.29367578124999993], [32.0, 0.29367578124999993], [32.0, 0.29367578124999993], [32.0, 0.29367578124999993], [32.0, 0.29367578124999993], [32.0, 0.29367578124999993], [32.0, 0.29367578124999993], [32.0, 0.29367578124999993], [32.0, 0.29367578124999993], [32.0, 0.29367578124999993], [32.0, 0.29367578124999993], [32.0, 0.29367578124999993], [32.0, 0.29367578124999993], [32.0, 0.29367578124999993], [32.0, 0.29367578124999993], [32.0, 0.29367578124999993], [32.0, 0.29367578124999993], [32.0, 0.29367578124999993], [32.0, 0.29367578124999993], [32.0, 0.29367578124999993], [32.0, 0.29367578124999993], [32.0, 0.29367578124999993], [32.0, 0.29367578124999993], [32.0, 0.29367578124999993], [32.0, 0.29367578124999993], [32.0, 0.29367578124999993], [32.0, 0.29367578124999993], [32.0, 0.29367578124999993], [32.0, 0.29367578124999993], [32.0, 0.29367578124999993], [32.0, 0.29367578124999993], [32.0, 0.29367578124999993], [32.0, 0.29367578124999993], [32.0, 0.29367578124999993], [32.0, 0.29367578124999993], [32.0, 0.29367578124999993], [32.0, 0.29367578124999993], [32.0, 0.29367578124999993], [32.0, 0.29367578124999993], [32.0, 0.29367578124999993], [32.0, 0.29367578124999993], [32.0, 0.29367578124999993], [32.0, 0.29367578124999993], [32.0, 0.29367578124999993], [32.0, 0.29367578124999993], [32.0, 0.29367578124999993], [32.0, 0.29367578124999993], [32.0, 0.29367578124999993], [32.0, 0.29367578124999993], [32.0, 0.29367578124999993], [32.0, 0.29367578124999993], [32.0, 0.29367578124999993], [32.0, 0.29367578124999993], [32.0, 0.29367578124999993], [32.0, 0.29367578124999993], [32.0, 0.29367578124999993], [32.0, 0.29367578124999993], [32.0, 0.29367578124999993], [32.0, 0.29367578124999993], [32.0, 0.29367578124999993], [32.0, 0.29367578124999993], [32.0, 0.29367578124999993], [32.0, 0.29367578124999993], [32.0, 0.29367578124999993], [32.0, 0.29367578124999993], [32.0, 0.29367578124999993], [32.0, 0.29367578124999993], [32.0, 0.29367578124999993], [32.0, 0.29367578124999993], [32.0, 0.29367578124999993], [32.0, 0.29367578124999993], [32.0, 0.29367578124999993], [32.0, 0.29367578124999993], [32.0, 0.29367578124999993], [32.0, 0.29367578124999993], [32.0, 0.29367578124999993], [32.0, 0.29367578124999993], [32.0, 0.29367578124999993], [32.0, 0.29367578124999993], [32.0, 0.29367578124999993], [32.0, 0.29367578124999993], [32.0, 0.29367578124999993], [32.0, 0.29367578124999993], [32.0, 0.29367578124999993], [32.0, 0.29367578124999993], [32.0, 0.29367578124999993], [32.0, 0.29367578124999993], [32.0, 0.29367578124999993], [32.0, 0.29367578124999993], [32.0, 0.29367578124999993], [32.0, 0.29367578124999993], [32.0, 0.29367578124999993], [32.0, 0.29367578124999993], [32.0, 0.29367578124999993], [32.0, 0.29367578124999993], 